timestamp,tp9,af7,af8,tp10
1767330536.259305,795.2297973632812,795.2297973632812,743.8961181640625,900.10986328125
1767330536.2632113,728.7615356445312,726.371826171875,731.6822509765625,693.801513671875
1767330536.2671175,671.4978637695312,661.6737060546875,721.0614624023438,561.3074340820312
1767330536.2710238,725.4867553710938,719.6453857421875,734.9569702148438,741.1524047851562
1767330536.3102732,795.2297973632812,800.6287231445312,746.197265625,917.0145874023438
1767330536.3141794,761.7744140625,764.341064453125,745.4006958007812,760.44677734375
1767330536.3180857,680.3485107421875,670.435791015625,719.2913208007812,560.6879272460938
1767330536.321992,700.5280151367188,681.4990844726562,709.90966796875,671.9404296875
1767330536.3258982,786.9102172851562,768.5009155273438,737.2581176757812,891.96728515625
1767330536.3298044,775.4928588867188,765.9342041015625,741.5064697265625,837.3588256835938
1767330536.3337107,689.0221557617188,682.5612182617188,720.44189453125,597.0640258789062
1767330536.337617,683.5347900390625,678.6669311523438,717.2556762695312,603.613525390625
1767330536.3415232,767.4387817382812,769.9169921875,743.8076171875,840.7221069335938
1767330536.3454294,787.4412231445312,791.8665771484375,742.5685424804688,880.0189208984375
1767330536.3493357,704.0682373046875,710.440673828125,719.910888671875,647.5126953125
1767330536.353242,661.1426391601562,672.29443359375,717.4326782226562,551.3062133789062
1767330536.3571482,728.8500366210938,743.0110473632812,729.912109375,759.2077026367188
1767330536.3610544,792.3975830078125,795.67236328125,751.773193359375,888.9580688476562
1767330536.3128245,735.4879760742188,724.336181640625,732.9213256835938,719.2028198242188
1767330536.3167307,666.6300659179688,660.08056640625,707.9625244140625,555.64306640625
1767330536.320637,714.7775268554688,717.875244140625,729.1155395507812,693.7130126953125
1767330536.3245432,793.1056518554688,790.0079345703125,745.5777587890625,903.0305786132812
1767330536.3284495,764.5181274414062,753.7203369140625,734.6914672851562,800.09765625
1767330536.3323557,682.0301513671875,675.1266479492188,716.4591064453125,568.2994384765625
1767330536.336262,696.4566650390625,696.7222290039062,719.910888671875,625.1205444335938
1767330536.3401682,782.130859375,772.3951416015625,739.0282592773438,868.8671264648438
1767330536.3440745,783.3699340820312,765.4916381835938,741.594970703125,860.6360473632812
1767330536.3479807,699.8199462890625,696.01416015625,726.6373901367188,613.61474609375
1767330536.351887,675.65771484375,689.55322265625,720.6189575195312,569.892578125
1767330536.3557932,757.7916259765625,760.0042724609375,746.020263671875,791.6895751953125
1767330536.3596995,794.5217895507812,777.9710693359375,747.9674072265625,893.64892578125
1767330536.3636057,716.5476684570312,714.3349609375,718.9373168945312,688.8451538085938
1767330536.3796384,665.83349609375,680.9680786132812,710.086669921875,543.606201171875
1767330536.3835447,727.87646484375,732.0362548828125,726.4603271484375,737.3466186523438
1767330536.387451,792.8401489257812,779.2101440429688,742.7455444335938,917.4570922851562
1767330536.3913572,745.2236938476562,738.3201904296875,733.3638305664062,761.8629150390625
1767330536.4318328,671.58642578125,689.1106567382812,720.7959594726562,553.3418579101562
1767330536.435739,697.518798828125,714.9545288085938,730.089111328125,666.2760009765625
1767330536.4396453,772.129638671875,773.3687133789062,745.9317626953125,895.861572265625
1767330536.4435515,760.0927734375,763.81005859375,740.1788330078125,826.2955322265625
1767330536.4474578,677.1622924804688,697.3417358398438,716.9016723632812,581.75244140625
1767330536.451364,680.5255737304688,695.9256591796875,721.76953125,586.8858032226562
1767330536.4304953,766.9077758789062,751.3306274414062,738.7627563476562,843.2002563476562
1767330536.4344015,780.5377807617188,770.093994140625,734.6914672851562,890.5512084960938
1767330536.4383078,702.6521606445312,718.05224609375,719.4683227539062,642.7333374023438
1767330536.442214,667.0725708007812,679.3749389648438,713.98095703125,559.4487915039062
1767330536.4461203,737.4351196289062,730.9741821289062,734.4259033203125,781.4227905273438
1767330536.4500265,792.6631469726562,781.1572875976562,747.1708374023438,907.4558715820312
1767330536.4539328,732.2132568359375,736.1075439453125,729.3810424804688,712.0338134765625
1767330536.457839,666.9840698242188,675.0381469726562,711.4142456054688,548.031494140625
1767330536.4617453,715.0430297851562,704.333740234375,726.017822265625,707.3429565429688
1767330536.4656515,789.6539306640625,776.8204956054688,746.4627685546875,906.216796875
1767330536.4695578,756.9950561523438,760.0042724609375,733.8948974609375,789.2998657226562
1767330536.473464,683.0037231445312,686.7210083007812,727.9649658203125,555.5545654296875
1767330536.4773703,699.554443359375,685.1278686523438,732.9213256835938,637.5999755859375
1767330536.4812765,776.8204956054688,767.7928466796875,733.806396484375,887.0109252929688
1767330536.4400506,781.599853515625,789.8309326171875,735.5765380859375,859.0429077148438
1767330536.4439569,694.155517578125,697.518798828125,721.76953125,618.0400390625
1767330536.447863,670.2587890625,661.1426391601562,715.839599609375,589.2754516601562
1767330536.4517694,753.1892700195312,745.84326171875,734.7799682617188,825.1449584960938
1767330536.4556756,793.813720703125,798.6815795898438,744.9581909179688,901.79150390625
1767330536.4595819,722.9201049804688,729.0270385742188,727.7879638671875,683.2692260742188
1767330536.463488,674.0645751953125,662.1162109375,717.9637451171875,560.5109252929688
1767330536.4673944,740.09033203125,721.76953125,734.160400390625,751.5076904296875
1767330536.4713006,807.0011596679688,801.5137939453125,744.5156860351562,914.4478759765625
1767330536.4752069,763.3674926757812,764.1640625,746.9938354492188,744.2501220703125
1767330536.479113,683.623291015625,670.435791015625,724.9557495117188,554.9349975585938
1767330536.4830194,705.83837890625,692.9164428710938,715.9281005859375,682.6497192382812
1767330536.5807266,782.48486328125,790.5390014648438,740.9754028320312,893.825927734375
1767330536.5846329,765.1376342773438,772.483642578125,734.6029663085938,826.030029296875
1767330536.5885391,682.0301513671875,675.65771484375,713.5384521484375,594.3203125
1767330536.5924454,682.6497192382812,682.3841552734375,723.982177734375,612.1986083984375
1767330536.5963516,763.8985595703125,778.6791381835938,750.0030517578125,846.386474609375
1767330536.6002579,782.48486328125,792.30908203125,748.6754760742188,876.8327026367188
1767330536.6041641,704.6878051757812,698.1383056640625,724.0706787109375,645.4769897460938
1767330536.6080704,667.4265747070312,660.1690673828125,717.875244140625,559.8028564453125
1767330536.6119766,742.1259765625,745.0466918945312,733.5408935546875,777.528564453125
1767330536.6158829,799.920654296875,812.5770874023438,748.5869750976562,893.9144287109375
1767330536.5751169,736.196044921875,736.1075439453125,730.443115234375,707.4314575195312
1767330536.5790231,672.2059326171875,661.0541381835938,711.59130859375,554.4039306640625
1767330536.5829294,724.336181640625,722.3890380859375,734.33740234375,709.9981689453125
1767330536.5868356,796.1148681640625,800.1861572265625,749.2064819335938,910.465087890625
1767330536.5907419,754.9594116210938,757.703125,728.7615356445312,788.7688598632812
1767330536.5946481,669.727783203125,676.7197875976562,714.3349609375,561.4844360351562
1767330536.5985544,691.5003662109375,701.1475219726562,727.2568969726562,635.7413330078125
1767330536.6024606,780.7147827148438,778.9446411132812,744.0731201171875,878.7798461914062
1767330536.6063669,779.8297119140625,770.8020629882812,738.3201904296875,856.1221923828125
1767330536.6102731,695.7486572265625,690.438232421875,717.3441772460938,608.6583862304688
1767330536.6141794,684.7738647460938,683.977294921875,713.1843872070312,585.0271606445312
1767330536.6180856,773.1917114257812,772.3951416015625,747.52490234375,815.9403076171875
1767330536.5854187,799.920654296875,791.4240112304688,753.6318359375,896.3040771484375
1767330536.589325,720.44189453125,715.4855346679688,722.9201049804688,678.5784301757812
1767330536.5932312,673.1795043945312,677.2507934570312,715.7510986328125,547.677490234375
1767330536.5971375,737.6121826171875,732.3902587890625,734.0718994140625,754.7824096679688
1767330536.6010437,799.3895874023438,780.1837158203125,744.6041870117188,921.0858764648438
1767330536.60495,747.701904296875,734.9569702148438,726.19482421875,750.091552734375
1767330536.6088562,675.5692138671875,680.0830078125,715.1315307617188,549.0935668945312
1767330536.6127625,716.2821044921875,716.9901733398438,730.7086791992188,678.5784301757812
1767330536.6166687,795.5838623046875,775.846923828125,749.737548828125,902.8535766601562
1767330536.620575,768.7664184570312,754.6054077148438,741.6834716796875,821.2506713867188
1767330536.7013357,684.4197998046875,698.4923095703125,719.556884765625,581.575439453125
1767330536.705242,690.7037963867188,703.4486694335938,727.7879638671875,597.5950927734375
1767330536.7091482,766.376708984375,756.8180541992188,740.3558349609375,851.785400390625
1767330536.7130544,774.6963500976562,771.8641357421875,736.8156127929688,885.3292846679688
1767330536.7169607,702.5636596679688,719.2028198242188,727.3453979492188,636.9804077148438
1767330536.720867,671.4093627929688,685.9244384765625,723.5396728515625,569.2730102539062
1767330536.6728199,739.6478271484375,738.3201904296875,733.9833984375,794.9642944335938
1767330536.676726,785.4055786132812,782.6619262695312,740.5328979492188,905.5087890625
1767330536.6806324,726.017822265625,738.4971923828125,731.1511840820312,698.6693725585938
1767330536.6845386,667.51513671875,680.1715087890625,717.1671752929688,544.6682739257812
1767330536.6884449,711.6798095703125,702.12109375,724.7787475585938,717.875244140625
1767330536.692351,785.3170776367188,772.129638671875,742.3914794921875,906.039794921875
1767330536.6962574,750.445556640625,764.341064453125,733.4523315429688,773.7227783203125
1767330536.7001636,670.7013549804688,689.6417236328125,722.3890380859375,538.7383422851562
1767330536.7040699,689.3761596679688,678.8439331054688,725.2212524414062,630.6964721679688
1767330536.707976,766.5537719726562,763.987060546875,734.6914672851562,880.284423828125
1767330536.7118824,769.1204223632812,787.706787109375,746.374267578125,834.349609375
1767330536.7157886,692.7394409179688,701.4130249023438,731.8592529296875,595.1168823242188
1767330536.7196949,675.3036499023438,664.328857421875,717.875244140625,583.7880859375
1767330536.723601,754.0743408203125,749.0294799804688,734.2489013671875,821.5162353515625
1767330536.6929345,780.7147827148438,799.4780883789062,750.7111206054688,881.2579956054688
1767330536.6968408,705.3073120117188,720.5304565429688,735.1339721679688,653.3540649414062
1767330536.700747,663.5323486328125,658.6644897460938,719.2913208007812,546.7039184570312
1767330536.7046533,736.5501098632812,727.4338989257812,734.4259033203125,751.773193359375
1767330536.7085595,796.6459350585938,800.6287231445312,749.2064819335938,906.5708618164062
1767330536.7124658,744.338623046875,760.0927734375,744.16162109375,719.2913208007812
1767330536.716372,672.6484985351562,664.6829223632812,717.0786743164062,545.81884765625
1767330536.7202783,703.8912353515625,685.658935546875,713.8924560546875,696.3681640625
1767330536.7241845,783.0159301757812,788.3262939453125,741.948974609375,897.3661499023438
1767330536.7280908,760.44677734375,775.2273559570312,740.267333984375,806.8241577148438
1767330536.731997,679.9945068359375,680.7025756835938,720.7074584960938,584.6731567382812
1767330536.7359033,691.0578002929688,681.0565795898438,722.3890380859375,632.5551147460938
1767330536.813518,774.34228515625,771.1560668945312,740.5328979492188,867.53955078125
1767330536.8174243,788.23779296875,789.2998657226562,743.8961181640625,881.3464965820312
1767330536.8213305,706.369384765625,696.4566650390625,727.1683959960938,639.9896240234375
1767330536.8252368,675.3036499023438,655.9207763671875,723.4511108398438,562.6350708007812
1767330536.829143,750.0030517578125,740.267333984375,728.7615356445312,806.9126586914062
1767330536.8330493,801.3367309570312,808.1517333984375,743.8961181640625,907.3673706054688
1767330536.8369555,736.9926147460938,732.5673217773438,727.7879638671875,702.9176635742188
1767330536.8408618,669.90478515625,657.69091796875,704.7763061523438,565.644287109375
1767330536.8203394,725.663818359375,727.9649658203125,723.982177734375,724.8672485351562
1767330536.8242457,799.1240844726562,804.345947265625,750.2685546875,916.218017578125
1767330536.828152,755.1364135742188,745.666259765625,741.5064697265625,787.0872192382812
1767330536.8320582,673.97607421875,662.7357788085938,717.3441772460938,566.7948608398438
1767330536.8359644,693.3589477539062,696.7222290039062,723.1856079101562,650.079345703125
1767330536.8398707,777.882568359375,776.9089965820312,740.8869018554688,882.7626342773438
1767330536.843777,770.27099609375,761.7744140625,731.3281860351562,841.3416137695312
1767330536.8476832,678.5784301757812,684.2427978515625,709.2015991210938,590.6915893554688
1767330536.8515894,670.9668579101562,684.5968627929688,711.9453125,583.6995849609375
1767330536.8554957,764.341064453125,776.2894287109375,747.7904052734375,817.4448852539062
1767330536.859402,790.450439453125,791.8665771484375,753.1007690429688,882.4970703125
1767330536.8633082,708.9360961914062,707.2544555664062,713.5384521484375,666.8070678710938
1767330536.8672144,672.2059326171875,674.6841430664062,713.0958862304688,551.92578125
1767330536.8711207,742.8340454101562,737.7891845703125,740.4443359375,760.0927734375
1767330536.8379474,795.67236328125,775.4043579101562,740.1788330078125,910.1995849609375
1767330536.8418536,736.196044921875,722.2120361328125,720.5304565429688,729.55810546875
1767330536.8457599,664.7714233398438,667.7806396484375,713.3613891601562,539.7119140625
1767330536.849666,710.440673828125,705.9268798828125,726.017822265625,683.8887939453125
1767330536.8535724,790.6275024414062,776.200927734375,740.267333984375,906.5708618164062
1767330536.8574786,767.704345703125,765.4916381835938,738.4971923828125,812.6655883789062
1767330536.8613849,683.8887939453125,691.0578002929688,718.3177490234375,580.247802734375
1767330536.865291,697.872802734375,696.1026611328125,729.3810424804688,620.1641845703125
1767330536.8691974,782.48486328125,758.4996337890625,749.1179809570312,869.8406982421875
1767330536.8731036,781.6883544921875,768.5894165039062,733.1868286132812,884.7097778320312
1767330536.9253964,699.908447265625,709.3786010742188,718.5833129882812,633.4401245117188
1767330536.9293027,675.4806518554688,675.4806518554688,717.2556762695312,584.4075927734375
1767330536.933209,756.021484375,735.0454711914062,734.2489013671875,821.4276733398438
1767330536.9371152,800.274658203125,782.0423583984375,746.197265625,916.9260864257812
1767330536.9410214,728.5845336914062,731.0626831054688,728.7615356445312,702.5636596679688
1767330536.9449277,671.2323608398438,675.7462158203125,715.0430297851562,557.3246459960938
1767330536.948834,731.770751953125,716.0166015625,733.1868286132812,740.7984008789062
1767330536.9527402,797.7080078125,784.6975708007812,750.1800537109375,918.6962280273438
1767330536.9566464,750.2685546875,757.2605590820312,732.7443237304688,773.1032104492188
1767330536.9605527,676.01171875,690.7922973632812,718.6718139648438,553.607421875
1767330536.964459,701.6785888671875,693.0049438476562,720.7074584960938,649.8138427734375
1767330536.9683652,778.0595703125,761.8629150390625,729.2040405273438,896.5696411132812
1767330536.9722714,771.0675659179688,776.9974975585938,734.33740234375,835.67724609375
1767330536.9761777,693.7130126953125,698.9348754882812,722.6546020507812,594.2318115234375
1767330536.9355273,684.7738647460938,672.3829345703125,718.9373168945312,603.79052734375
1767330536.9394336,764.7836303710938,758.4111328125,735.3994750976562,840.1910400390625
1767330536.9433398,791.1585083007812,801.4252319335938,745.2236938476562,883.647705078125
1767330536.947246,718.40625,729.735107421875,732.3902587890625,655.3012084960938
1767330536.9511523,672.3829345703125,663.3552856445312,719.8223876953125,560.6879272460938
1767330536.9550586,739.1167602539062,723.982177734375,727.1683959960938,764.6951293945312
1767330536.9589648,797.4424438476562,798.9470825195312,737.1696166992188,903.1190795898438
1767330536.962871,743.630615234375,754.0743408203125,733.5408935546875,713.2728881835938
1767330536.9667773,672.5599975585938,666.1875,718.4947509765625,543.5177001953125
1767330536.9706836,706.9004516601562,694.155517578125,713.8924560546875,705.9268798828125
1767330536.9745898,786.4676513671875,791.2470092773438,735.1339721679688,905.5087890625
1767330536.978496,764.7836303710938,776.02392578125,741.0639038085938,801.1597290039062
1767330536.9718084,679.1979370117188,677.870361328125,717.875244140625,574.2293701171875
1767330536.9757147,683.1807250976562,679.6405029296875,719.6453857421875,629.5458984375
1767330536.979621,766.5537719726562,771.1560668945312,742.47998046875,865.0613403320312
1767330536.9835272,777.9710693359375,780.5377807617188,739.6478271484375,855.502685546875
1767330536.9874334,694.8635864257812,686.5440063476562,717.4326782226562,619.1906127929688
1767330536.9913397,665.0369262695312,664.5944213867188,712.7418823242188,574.2293701171875
1767330537.0451303,738.6742553710938,750.6226196289062,730.9741821289062,801.602294921875
1767330537.0490365,785.84814453125,803.2838745117188,750.9766235351562,885.8603515625
1767330537.0529428,718.9373168945312,723.8936767578125,734.9569702148438,679.72900390625
1767330537.056849,658.6644897460938,658.6644897460938,705.3073120117188,558.6522827148438
1767330537.0607553,722.300537109375,734.9569702148438,722.7431030273438,737.2581176757812
1767330537.0646615,795.5838623046875,801.0712280273438,748.1444091796875,912.32373046875
1767330537.0685678,753.1007690429688,741.0639038085938,740.1788330078125,768.5894165039062
1767330537.072474,665.7449951171875,661.1426391601562,712.476318359375,553.96142578125
1767330537.0763803,691.0578002929688,696.01416015625,715.839599609375,653.0885620117188
1767330537.0802865,782.9274291992188,783.5469970703125,742.3914794921875,888.5155639648438
1767330537.0841928,768.5894165039062,767.52734375,738.231689453125,835.9427490234375
1767330537.088099,678.7554321289062,687.7830810546875,721.2384643554688,592.7272338867188
1767330537.0920053,671.1438598632812,687.694580078125,714.2464599609375,599.2766723632812
1767330537.0959115,760.44677734375,772.129638671875,741.4179077148438,828.3311767578125
1767330537.0474527,791.2470092773438,777.0859985351562,756.198486328125,876.213134765625
1767330537.051359,706.4578857421875,695.4830932617188,725.0442504882812,660.8771362304688
1767330537.0552652,657.6024169921875,671.2323608398438,707.3429565429688,556.4395751953125
1767330537.0591714,731.8592529296875,742.302978515625,720.7959594726562,772.8377075195312
1767330537.0630777,786.7332153320312,781.599853515625,736.1075439453125,913.9168701171875
1767330537.066984,726.8143920898438,723.5396728515625,727.6109619140625,722.2120361328125
1767330537.0708902,663.2667846679688,670.435791015625,714.5120239257812,544.6682739257812
1767330537.0747964,707.3429565429688,713.0958862304688,727.2568969726562,697.3417358398438
1767330537.0787027,780.0067138671875,774.165283203125,742.0374755859375,906.3052978515625
1767330537.082609,751.773193359375,748.8524780273438,730.7086791992188,795.5838623046875
1767330537.0865152,673.1795043945312,685.2163696289062,714.8660278320312,569.9810791015625
1767330537.0904214,694.0670166015625,707.1659545898438,732.478759765625,624.4124755859375
1767330537.0943277,783.0159301757812,770.5365600585938,750.8881225585938,870.7257690429688
1767330537.098234,781.953857421875,766.19970703125,731.3281860351562,873.3809204101562
1767330537.0889063,696.5452270507812,702.47509765625,710.5292358398438,618.1285400390625
1767330537.0928125,675.5692138671875,684.8623657226562,716.8131713867188,578.3006591796875
1767330537.0967188,755.4019165039062,750.7996215820312,732.5673217773438,818.5955200195312
1767330537.100625,787.8837890625,779.7412109375,733.8948974609375,898.8707885742188
1767330537.1965768,712.3878173828125,711.8568115234375,722.7431030273438,675.9232177734375
1767330537.200483,664.4173583984375,669.90478515625,720.44189453125,550.5097045898438
1767330537.2043893,730.26611328125,720.9729614257812,735.1339721679688,750.8881225585938
1767330537.2082956,796.7344360351562,785.4055786132812,749.2949829101562,916.3065185546875
1767330537.2122018,747.701904296875,748.055908203125,733.4523315429688,757.6146240234375
1767330537.216108,679.0209350585938,685.0393676757812,718.05224609375,545.5533447265625
1767330537.1758611,709.732666015625,700.6165161132812,725.3097534179688,663.5323486328125
1767330537.1797674,778.9446411132812,764.0755615234375,733.9833984375,907.8984375
1767330537.1836736,766.1112060546875,766.376708984375,733.62939453125,831.4288940429688
1767330537.1875799,686.5440063476562,692.7394409179688,722.3890380859375,586.9743041992188
1767330537.1914861,681.1450805664062,673.0910034179688,721.592529296875,607.7733154296875
1767330537.1953924,761.597412109375,753.808837890625,741.3294067382812,845.85546875
1767330537.1992986,781.599853515625,795.3182983398438,749.2949829101562,871.5223388671875
1767330537.2032049,698.9348754882812,713.98095703125,728.4959716796875,633.5286865234375
1767330537.2071111,657.867919921875,652.0264892578125,711.9453125,557.1476440429688
1767330537.2110174,734.0718994140625,726.7258911132812,728.407470703125,777.4400024414062
1767330537.2149236,783.3699340820312,797.7965087890625,742.3914794921875,903.650146484375
1767330537.2188299,726.9028930664062,750.0030517578125,734.9569702148438,699.9969482421875
1767330537.170587,668.046142578125,662.6472778320312,719.4683227539062,538.5613403320312
1767330537.1744933,711.8568115234375,690.3497314453125,726.1063232421875,718.4947509765625
1767330537.1783996,793.4596557617188,791.60107421875,750.6226196289062,913.3858032226562
1767330537.1823058,762.8364868164062,775.2273559570312,745.2236938476562,795.4953002929688
1767330537.186212,679.2864379882812,672.7369995117188,719.2913208007812,577.0615844726562
1767330537.1901183,691.94287109375,680.260009765625,720.3533935546875,642.7333374023438
1767330537.1940246,775.2273559570312,781.6883544921875,747.1708374023438,875.2395629882812
1767330537.1979308,781.599853515625,783.8125,746.020263671875,854.7946166992188
1767330537.201837,696.4566650390625,681.7646484375,724.5132446289062,616.5354614257812
1767330537.2057433,677.6048583984375,666.2760009765625,726.4603271484375,588.390380859375
1767330537.2096496,758.1456298828125,753.2777709960938,738.8512573242188,824.7024536132812
1767330537.2135558,798.239013671875,804.345947265625,747.9674072265625,893.3833618164062
1767330537.217462,725.0442504882812,723.4511108398438,736.4615478515625,675.4806518554688
1767330537.2213683,670.7013549804688,657.0713500976562,714.157958984375,569.6270751953125
1767330537.3004267,730.089111328125,730.6201782226562,730.1776123046875,756.021484375
1767330537.304333,794.167724609375,797.1769409179688,750.2685546875,914.359375
1767330537.3082392,748.055908203125,733.0983276367188,731.94775390625,757.1720581054688
1767330537.3121455,668.9312133789062,657.2483520507812,711.3257446289062,555.2890014648438
1767330537.3160517,705.2188110351562,697.518798828125,728.23046875,672.7369995117188
1767330537.319958,791.1585083007812,783.635498046875,750.5341186523438,895.6845703125
1767330537.3238642,768.058349609375,762.305419921875,738.4971923828125,821.78173828125
1767330537.3277705,685.1278686523438,681.8531494140625,719.73388671875,585.2926635742188
1767330537.3316767,686.7210083007812,693.62451171875,725.3982543945312,615.3848266601562
1767330537.335583,771.775634765625,789.5654296875,752.481201171875,845.7669677734375
1767330537.3028805,787.4412231445312,788.060791015625,752.127197265625,868.424560546875
1767330537.3067868,699.554443359375,685.7474365234375,718.7603149414062,648.6632690429688
1767330537.310693,665.83349609375,669.55078125,715.3970336914062,569.8040771484375
1767330537.3145993,737.9661865234375,747.1708374023438,737.877685546875,787.706787109375
1767330537.3185055,783.1929321289062,779.2986450195312,743.984619140625,906.7478637695312
1767330537.3224118,720.7959594726562,723.2741088867188,726.017822265625,707.0774536132812
1767330537.326318,664.6829223632812,676.9852905273438,710.086669921875,547.9429931640625
1767330537.3302243,715.4855346679688,727.699462890625,728.1419677734375,712.2108154296875
1767330537.3341305,782.2193603515625,781.599853515625,745.4006958007812,909.93408203125
1767330537.3380368,745.7547607421875,746.197265625,728.23046875,779.8297119140625
1767330537.3233254,667.6036376953125,681.7646484375,714.157958984375,560.068359375
1767330537.3272316,694.8635864257812,712.0338134765625,732.8328247070312,634.8562622070312
1767330537.331138,783.4584350585938,780.3607177734375,744.5156860351562,869.92919921875
1767330537.3350441,778.9446411132812,764.9606323242188,729.912109375,857.8038330078125
1767330537.3389504,698.4923095703125,694.6865844726562,716.5476684570312,607.2422485351562
1767330537.3428566,680.7910766601562,686.6325073242188,719.0258178710938,577.0615844726562
1767330537.346763,756.9065551757812,744.6041870117188,734.160400390625,822.6668090820312
1767330537.3506691,788.6803588867188,773.0147094726562,739.559326171875,892.5868530273438
1767330537.3545754,716.0166015625,724.2476806640625,723.4511108398438,662.0277099609375
1767330537.3584816,670.8783569335938,679.8175048828125,714.0694580078125,550.5097045898438
1767330537.362388,731.94775390625,725.1327514648438,728.053466796875,761.597412109375
1767330537.3662941,792.2205810546875,785.4055786132812,741.3294067382812,915.68701171875
1767330537.4366379,740.7984008789062,745.9317626953125,726.5488891601562,746.5513305664062
1767330537.4405441,667.7806396484375,687.3405151367188,719.3798217773438,545.9073486328125
1767330537.4444504,703.625732421875,702.2095947265625,732.478759765625,673.8875732421875
1767330537.4483566,773.7227783203125,759.73876953125,736.196044921875,904.8007202148438
1767330537.4522629,754.8709106445312,760.5353393554688,734.6029663085938,810.5414428710938
1767330537.4561691,676.2772216796875,692.3853759765625,724.6017456054688,571.2201538085938
1767330537.4517915,677.0737915039062,672.0289306640625,717.9637451171875,611.756103515625
1767330537.4556978,760.9778442382812,748.8524780273438,733.2753295898438,850.8118286132812
1767330537.459604,775.669921875,785.4940795898438,740.0018310546875,863.4682006835938
1767330537.4635103,697.872802734375,713.98095703125,723.628173828125,623.7044677734375
1767330537.4674165,666.010498046875,664.328857421875,715.0430297851562,562.4580078125
1767330537.4713228,743.630615234375,734.6914672851562,731.770751953125,787.4412231445312
1767330537.450275,793.9022216796875,800.45166015625,746.374267578125,895.861572265625
1767330537.4541812,730.8856811523438,750.8881225585938,739.0282592773438,684.5083618164062
1767330537.4580874,673.0025024414062,668.7542114257812,722.5661010742188,533.0739135742188
1767330537.4619937,723.80517578125,702.6521606445312,725.3097534179688,725.0442504882812
1767330537.4659,794.6102905273438,787.706787109375,751.59619140625,910.5536499023438
1767330537.4698062,761.1548461914062,763.1019897460938,744.6041870117188,774.8733520507812
1767330537.4737124,682.2071533203125,671.3208618164062,716.2821044921875,565.3787231445312
1767330537.4776187,702.12109375,683.7117919921875,721.6810302734375,654.150634765625
1767330537.481525,785.1400756835938,776.8204956054688,743.1880493164062,886.1258544921875
1767330537.4854312,783.9010009765625,784.6090698242188,744.338623046875,848.2451171875
1767330537.4893374,702.0325927734375,687.694580078125,723.5396728515625,614.7653198242188
1767330537.4932437,681.587646484375,662.47021484375,718.4947509765625,598.6571655273438
1767330537.49715,761.7744140625,749.6490478515625,734.5144653320312,834.9691772460938
1767330537.5010562,801.602294921875,801.1597290039062,747.9674072265625,887.3649291992188
1767330537.4838712,725.9293212890625,724.8672485351562,735.842041015625,658.5759887695312
1767330537.4877775,668.8427124023438,660.9656372070312,712.3878173828125,568.387939453125
1767330537.4916837,731.94775390625,734.4259033203125,725.9293212890625,763.4559936523438
1767330537.49559,796.9999389648438,800.8057250976562,745.4891967773438,909.580078125
1767330537.4994962,743.8076171875,732.5673217773438,736.9926147460938,743.0110473632812
1767330537.5034025,668.3116455078125,659.4609985351562,714.6890258789062,555.0234985351562
1767330537.544899,706.015380859375,705.2188110351562,719.8223876953125,683.8887939453125
1767330537.5488052,789.6539306640625,787.4412231445312,745.4006958007812,901.4374389648438
1767330537.5527115,764.4295654296875,755.7559814453125,740.9754028320312,817.533447265625
1767330537.5566177,674.153076171875,673.6220703125,721.0614624023438,579.716796875
1767330537.560524,682.0301513671875,694.5980834960938,720.6189575195312,626.359619140625
1767330537.5644302,773.2802124023438,794.0792236328125,747.6134033203125,860.458984375
1767330537.5683365,783.8125,785.1400756835938,752.2156982421875,861.1670532226562
1767330537.5722427,694.7750854492188,685.9244384765625,715.4855346679688,631.935546875
1767330537.576149,667.2495727539062,669.3737182617188,710.1751708984375,560.245361328125
1767330537.5800552,749.8260498046875,749.2949829101562,735.3109741210938,781.2457885742188
1767330537.5839615,797.531005859375,781.953857421875,741.2409057617188,896.8351440429688
1767330537.5878677,729.8236083984375,711.2372436523438,725.3097534179688,691.4118041992188
1767330537.591774,667.2495727539062,661.4081420898438,716.5476684570312,535.7291259765625
1767330537.5956802,722.4775390625,722.5661010742188,729.1155395507812,712.8303833007812
1767330537.554991,792.7516479492188,789.742431640625,746.197265625,907.8099365234375
1767330537.5588973,748.5869750976562,753.98583984375,740.1788330078125,773.63427734375
1767330537.5628035,666.364501953125,678.7554321289062,711.4142456054688,563.4315795898438
1767330537.5667098,696.3681640625,708.4935302734375,720.7074584960938,647.86669921875
1767330537.570616,780.7147827148438,772.9262084960938,752.0386962890625,878.8683471679688
1767330537.5745223,768.058349609375,752.5697631835938,740.8869018554688,856.7417602539062
1767330537.5784285,685.658935546875,687.7830810546875,718.5833129882812,610.1629638671875
1767330537.5823348,678.4898681640625,677.4277954101562,716.7246704101562,598.03759765625
1767330537.586241,761.597412109375,740.09033203125,733.1868286132812,846.2979736328125
1767330537.5901473,785.0515747070312,774.5193481445312,742.7455444335938,901.2604370117188
1767330537.5940535,705.83837890625,719.556884765625,726.017822265625,666.6300659179688
1767330537.5979598,666.4530029296875,681.6761474609375,717.6097412109375,563.1660766601562
1767330537.5842144,737.2581176757812,734.7799682617188,730.443115234375,778.41357421875
1767330537.5881207,791.778076171875,783.5469970703125,740.7098999023438,919.581298828125
1767330537.592027,732.2132568359375,735.5765380859375,730.443115234375,739.6478271484375
1767330537.5959332,667.692138671875,688.048583984375,723.1856079101562,548.5625610351562
1767330537.5998394,710.440673828125,711.4142456054688,738.4971923828125,682.5612182617188
1767330537.6037457,776.8204956054688,764.7836303710938,741.4179077148438,910.7306518554688
1767330537.6990461,752.30419921875,762.0399169921875,732.5673217773438,809.0368041992188
1767330537.7029524,677.693359375,697.69580078125,723.4511108398438,568.387939453125
1767330537.7068586,683.80029296875,683.0922241210938,716.7246704101562,620.5182495117188
1767330537.710765,767.3502807617188,753.4547729492188,730.089111328125,861.963623046875
1767330537.6653688,777.7940673828125,777.882568359375,735.0454711914062,857.1842651367188
1767330537.669275,701.0590209960938,716.7246704101562,720.3533935546875,616.9779663085938
1767330537.6731813,677.9588623046875,676.9852905273438,715.7510986328125,572.8132934570312
1767330537.6770875,751.5076904296875,736.6386108398438,733.4523315429688,797.0884399414062
1767330537.6809938,796.38037109375,790.8930053710938,742.3914794921875,895.507568359375
1767330537.6849,733.2753295898438,744.16162109375,735.0454711914062,680.1715087890625
1767330537.6888063,670.6128540039062,666.4530029296875,724.6017456054688,530.064697265625
1767330537.6927125,718.229248046875,700.6165161132812,718.6718139648438,729.6466064453125
1767330537.6966188,790.2734375,789.1228637695312,734.6914672851562,908.7835083007812
1767330537.700525,752.6582641601562,761.3318481445312,733.3638305664062,760.3582763671875
1767330537.7044313,675.65771484375,673.0025024414062,713.5384521484375,559.2717895507812
1767330537.7083375,696.7222290039062,689.4646606445312,719.910888671875,658.4874267578125
1767330537.7122438,774.2537841796875,776.200927734375,742.302978515625,883.0281372070312
1767330537.71615,767.52734375,781.0687866210938,743.3650512695312,830.8093872070312
1767330537.6674924,688.8451538085938,691.1463012695312,726.4603271484375,601.1353149414062
1767330537.6713986,677.4277954101562,669.9932861328125,722.6546020507812,604.0560302734375
1767330537.675305,760.7123413085938,759.73876953125,736.5501098632812,847.1830444335938
1767330537.6792111,792.0435791015625,796.8229370117188,746.1087646484375,888.6925659179688
1767330537.6831174,714.6890258789062,705.83837890625,734.5144653320312,652.5575561523438
1767330537.6870236,670.7013549804688,656.186279296875,717.3441772460938,575.99951171875
1767330537.69093,738.231689453125,739.559326171875,728.1419677734375,782.48486328125
1767330537.6948361,798.8585815429688,806.381591796875,747.52490234375,918.7847290039062
1767330537.6987424,742.3914794921875,732.2132568359375,736.1075439453125,743.8076171875
1767330537.7026486,670.7013549804688,653.5311279296875,715.5740966796875,561.6614990234375
1767330537.706555,717.3441772460938,708.1395263671875,725.7523193359375,703.0946655273438
1767330537.7104611,795.3182983398438,790.7160034179688,747.0823364257812,911.61572265625
1767330537.7143674,764.0755615234375,751.1536254882812,734.5144653320312,809.744873046875
1767330537.7182736,679.6405029296875,664.7714233398438,716.8131713867188,572.7247924804688
1767330537.8264973,693.2704467773438,680.1715087890625,720.9729614257812,625.0320434570312
1767330537.8304036,782.2193603515625,778.6791381835938,737.6121826171875,860.1934814453125
1767330537.8343098,793.5482177734375,785.4940795898438,755.4904174804688,845.4129028320312
1767330537.838216,710.3521728515625,697.0762329101562,735.1339721679688,610.074462890625
1767330537.8421223,680.3485107421875,676.5427856445312,709.90966796875,577.3270874023438
1767330537.8460286,755.844482421875,759.561767578125,725.2212524414062,805.673583984375
1767330537.8050363,797.2654418945312,786.8217163085938,737.3466186523438,895.507568359375
1767330537.8089426,727.9649658203125,711.59130859375,723.2741088867188,683.5347900390625
1767330537.8128488,673.1795043945312,666.8070678710938,714.3349609375,540.5084838867188
1767330537.816755,731.1511840820312,728.053466796875,732.8328247070312,724.0706787109375
1767330537.8206613,790.0079345703125,785.0515747070312,745.2236938476562,906.039794921875
1767330537.8245676,741.2409057617188,745.4006958007812,728.6730346679688,756.198486328125
1767330537.8284738,663.2667846679688,678.7554321289062,710.9717407226562,550.067138671875
1767330537.83238,691.3233032226562,722.7431030273438,729.4695434570312,654.150634765625
1767330537.8362863,774.8733520507812,793.5482177734375,755.844482421875,880.7269897460938
1767330537.8401926,756.5525512695312,754.9594116210938,738.0546875,841.7841796875
1767330537.8440988,668.4886474609375,676.2772216796875,714.157958984375,598.1260986328125
1767330537.848005,664.6829223632812,672.9140014648438,718.9373168945312,600.1617431640625
1767330537.8317282,751.8616943359375,748.1444091796875,741.594970703125,854.175048828125
1767330537.8356345,781.2457885742188,778.0595703125,745.4891967773438,896.6581420898438
1767330537.8395407,709.4671020507812,711.9453125,726.4603271484375,659.2839965820312
1767330537.843447,672.3829345703125,676.4542236328125,722.2120361328125,567.3258666992188
1767330537.8473532,742.5685424804688,732.3902587890625,739.1167602539062,786.025146484375
1767330537.8512595,796.2918701171875,784.9630737304688,746.9938354492188,919.0502319335938
1767330537.8635902,741.2409057617188,740.1788330078125,731.3281860351562,728.8500366210938
1767330537.8674965,675.834716796875,685.5704345703125,716.9016723632812,546.1728515625
1767330537.8714027,721.76953125,707.6085205078125,730.8856811523438,693.7130126953125
1767330537.875309,798.8585815429688,766.376708984375,743.3650512695312,922.324951171875
1767330537.8792152,768.1468505859375,763.5445556640625,734.5144653320312,806.6471557617188
1767330537.8831215,686.8095092773438,699.554443359375,721.0614624023438,566.5293579101562
1767330537.8870277,698.9348754882812,689.9072265625,727.0798950195312,636.183837890625
1767330537.890934,782.6619262695312,766.2882080078125,743.2765502929688,876.6557006835938
1767330537.9308412,784.343505859375,787.52978515625,743.630615234375,854.9716186523438
1767330537.9347475,699.8199462890625,712.8303833007812,726.4603271484375,608.7468872070312
1767330537.9386537,676.7197875976562,669.0197143554688,716.9016723632812,575.4684448242188
1767330537.94256,751.1536254882812,731.59375,732.0362548828125,806.4700927734375
1767330537.9464662,785.0515747070312,776.9089965820312,739.6478271484375,890.108642578125
1767330537.9503725,713.0958862304688,732.9213256835938,733.1868286132812,668.6657104492188
1767330537.9542787,663.3552856445312,679.4634399414062,728.4959716796875,536.4371337890625
1767330537.958185,716.4591064453125,715.3970336914062,726.9028930664062,747.0823364257812
1767330537.9620912,775.669921875,790.1849365234375,734.8684692382812,914.8904418945312
1767330537.9659975,731.6822509765625,762.5709838867188,733.9833984375,752.481201171875
1767330537.9328659,656.4517822265625,671.3208618164062,718.4947509765625,555.64306640625
1767330537.936772,687.9600830078125,686.2784423828125,719.556884765625,668.4886474609375
1767330537.9406784,770.7135620117188,776.6434936523438,739.2937622070312,891.790283203125
1767330537.9445846,766.1112060546875,776.9089965820312,741.5064697265625,823.994384765625
1767330537.9484909,686.2784423828125,679.2864379882812,722.4775390625,592.9927368164062
1767330537.952397,679.9945068359375,668.1346435546875,719.1143188476562,611.1365356445312
1767330537.9563034,764.5181274414062,765.4031372070312,736.1075439453125,846.2979736328125
1767330537.9602096,790.8930053710938,805.8505859375,742.1259765625,869.6636962890625
1767330537.9641159,714.9545288085938,720.264892578125,732.124755859375,621.4917602539062
1767330537.968022,671.3208618164062,653.8851318359375,718.05224609375,563.4315795898438
1767330537.9382868,740.8869018554688,726.1063232421875,727.3453979492188,789.6539306640625
1767330537.942193,794.5217895507812,800.1861572265625,735.7535400390625,899.932861328125
1767330537.9460993,727.7879638671875,729.55810546875,721.0614624023438,708.7590942382812
1767330537.9500055,663.3552856445312,658.044921875,716.6361694335938,545.1107788085938
1767330537.9539118,713.5384521484375,719.8223876953125,727.0798950195312,701.4130249023438
1767330537.957818,785.2285766601562,800.6287231445312,740.8869018554688,894.5339965820312
1767330537.9617243,752.9237670898438,756.8180541992188,736.373046875,781.0687866210938
1767330537.9656305,674.5956420898438,666.9840698242188,715.5740966796875,562.1925048828125
1767330537.9695368,690.7922973632812,682.47265625,717.6982421875,636.9804077148438
1767330537.973443,777.1744995117188,785.4940795898438,749.737548828125,869.4866333007812
1767330537.9773493,779.7412109375,782.3963623046875,753.98583984375,840.0140380859375
1767330537.9812555,687.1635131835938,676.5427856445312,716.193603515625,617.0664672851562
1767330538.0525897,666.364501953125,669.727783203125,709.8211669921875,591.2225952148438
1767330538.056496,754.162841796875,771.0675659179688,739.0282592773438,823.994384765625
1767330538.0604022,790.9815063476562,795.4953002929688,748.055908203125,911.1731567382812
1767330538.0643084,711.59130859375,708.4935302734375,726.5488891601562,686.1014404296875
1767330538.0682147,660.7886352539062,664.8599243164062,713.1843872070312,553.0763549804688
1767330538.072121,730.8856811523438,734.4259033203125,727.2568969726562,745.4891967773438
1767330538.0760272,794.2562255859375,787.8837890625,742.302978515625,918.9617309570312
1767330538.0799334,739.0282592773438,741.594970703125,732.0362548828125,757.6146240234375
1767330538.0838397,660.4345703125,674.6841430664062,717.2556762695312,555.9085693359375
1767330538.087746,700.08544921875,713.1843872070312,728.8500366210938,672.2059326171875
1767330538.0398328,791.60107421875,794.167724609375,750.9766235351562,885.4177856445312
1767330538.043739,772.483642578125,770.1824951171875,738.4971923828125,829.92431640625
1767330538.0476453,686.012939453125,691.765869140625,718.05224609375,595.824951171875
1767330538.0515516,690.3497314453125,698.0498046875,720.6189575195312,605.649169921875
1767330538.0554578,780.6262817382812,765.668701171875,739.6478271484375,852.8474731445312
1767330538.059364,796.4688720703125,773.98828125,741.4179077148438,879.6649169921875
1767330538.0632703,710.8832397460938,706.5464477539062,716.7246704101562,631.1389770507812
1767330538.0671766,676.2772216796875,685.9244384765625,710.440673828125,548.031494140625
1767330538.0710828,751.8616943359375,746.4627685546875,730.26611328125,779.4756469726562
1767330538.074989,800.8057250976562,787.6182861328125,740.4443359375,898.1627197265625
1767330538.0788953,735.6650390625,736.2845458984375,720.44189453125,695.1290893554688
1767330538.0828016,673.97607421875,683.977294921875,712.476318359375,529.6221923828125
1767330538.0867078,728.7615356445312,723.5396728515625,737.0811157226562,690.8807983398438
1767330538.090614,795.67236328125,778.1480712890625,738.3201904296875,905.0662231445312
1767330538.0890908,757.3490600585938,748.3214111328125,723.3626098632812,783.0159301757812
1767330538.092997,678.1358642578125,680.3485107421875,717.6097412109375,560.068359375
1767330538.0969033,690.7922973632812,688.6681518554688,721.3269653320312,646.8931274414062
1767330538.1008096,766.5537719726562,763.81005859375,738.1431884765625,880.46142578125
1767330538.1047158,761.5089111328125,774.165283203125,738.5857543945312,849.0416870117188
1767330538.108622,674.6841430664062,703.0946655273438,721.3269653320312,603.7020263671875
1767330538.1125283,657.513916015625,668.22314453125,722.4775390625,587.4168090820312
1767330538.1164346,737.0811157226562,737.3466186523438,743.630615234375,831.0748901367188
1767330538.1747224,769.2089233398438,782.307861328125,744.9581909179688,896.9236450195312
1767330538.1786287,700.1739501953125,727.9649658203125,730.9741821289062,663.5323486328125
1767330538.182535,660.1690673828125,673.4450073242188,731.8592529296875,541.3934936523438
1767330538.1864412,720.087890625,716.2821044921875,735.6650390625,759.73876953125
1767330538.1903474,776.2894287109375,787.7952880859375,739.736328125,915.9525146484375
1767330538.1942537,729.3810424804688,753.808837890625,730.0006103515625,736.6386108398438
1767330538.19816,660.4345703125,670.435791015625,710.9717407226562,550.421142578125
1767330538.2020662,700.1739501953125,692.5624389648438,722.0350341796875,681.587646484375
1767330538.2059724,781.77685546875,775.5814208984375,744.0731201171875,895.507568359375
1767330538.2098787,764.9606323242188,774.7848510742188,740.1788330078125,809.744873046875
1767330538.1694465,689.1106567382812,686.366943359375,724.5132446289062,585.9122314453125
1767330538.1733527,693.7130126953125,673.2680053710938,724.4246826171875,622.111328125
1767330538.177259,775.9354248046875,757.880126953125,740.6213989257812,857.0072631835938
1767330538.1811652,791.1585083007812,793.813720703125,751.4191284179688,863.0256958007812
1767330538.1850715,708.4935302734375,712.5648803710938,738.231689453125,611.2250366210938
1767330538.1889777,669.1967163085938,656.186279296875,712.7418823242188,562.4580078125
1767330538.192884,742.302978515625,737.9661865234375,725.663818359375,790.8045043945312
1767330538.1967902,799.3010864257812,809.56787109375,753.1007690429688,897.0121459960938
1767330538.2006965,733.8948974609375,736.196044921875,737.0811157226562,704.6878051757812
1767330538.2046027,667.869140625,658.3104248046875,717.1671752929688,547.1464233398438
1767330538.208509,724.6017456054688,715.66259765625,733.0098266601562,713.3613891601562
1767330538.2124152,794.0792236328125,799.3895874023438,751.773193359375,904.2696533203125
1767330538.1800528,752.7467651367188,753.4547729492188,741.0639038085938,778.1480712890625
1767330538.183959,675.2151489257812,668.22314453125,720.8844604492188,564.7592163085938
1767330538.1878653,698.0498046875,695.2175903320312,728.3189697265625,651.583984375
1767330538.1917715,780.09521484375,791.6895751953125,757.3490600585938,878.6913452148438
1767330538.1956778,774.8733520507812,783.635498046875,766.9077758789062,830.455322265625
1767330538.199584,680.43701171875,680.1715087890625,733.7178955078125,603.2594604492188
1767330538.2034903,661.8507080078125,670.081787109375,725.8408203125,592.107666015625
1767330538.2073965,750.091552734375,755.7559814453125,755.4904174804688,822.7553100585938
1767330538.2113028,783.2814331054688,779.918212890625,761.0663452148438,884.8867797851562
1767330538.215209,702.9176635742188,709.732666015625,740.0018310546875,650.6104125976562
1767330538.305286,651.6724853515625,674.2415771484375,730.26611328125,534.9325561523438
1767330538.3091922,719.4683227539062,753.4547729492188,751.4191284179688,738.1431884765625
1767330538.3130984,778.7676391601562,800.1861572265625,768.6779174804688,894.179931640625
1767330538.3170047,722.12353515625,740.7098999023438,752.9237670898438,719.556884765625
1767330538.320911,651.4069213867188,673.8875732421875,733.7178955078125,522.8071899414062
1767330538.3248172,690.5267944335938,712.5648803710938,738.6742553710938,659.549560546875
1767330538.3287234,768.3238525390625,787.1757202148438,751.2421264648438,892.8523559570312
1767330538.3326297,743.3650512695312,762.7479858398438,743.7191162109375,806.8241577148438
1767330538.336536,665.4794311523438,695.9256591796875,738.1431884765625,542.1015625
1767330538.3404422,681.4105834960938,698.40380859375,748.3214111328125,582.9030151367188
1767330538.3443484,764.0755615234375,759.6502685546875,750.9766235351562,859.7509765625
1767330538.3482547,772.129638671875,772.0411376953125,746.374267578125,861.609619140625
1767330538.352161,691.5888671875,702.47509765625,728.407470703125,614.32275390625
1767330538.3560672,667.869140625,679.2864379882812,721.946533203125,554.9349975585938
1767330538.3076582,743.630615234375,744.2501220703125,738.5857543945312,791.6895751953125
1767330538.3115644,785.84814453125,786.8217163085938,748.7639770507812,900.6409301757812
1767330538.3154707,722.2120361328125,724.4246826171875,728.6730346679688,691.765869140625
1767330538.319377,666.0989990234375,677.1622924804688,718.3177490234375,541.4819946289062
1767330538.3232832,726.19482421875,720.6189575195312,740.1788330078125,713.3613891601562
1767330538.3271894,795.4953002929688,769.56298828125,743.0110473632812,917.3685913085938
1767330538.3310957,751.9501953125,748.5869750976562,726.1063232421875,779.8297119140625
1767330538.335002,680.43701171875,689.1106567382812,717.1671752929688,558.2982177734375
1767330538.3389082,707.6085205078125,693.7130126953125,719.2913208007812,663.8863525390625
1767330538.3428144,791.3355102539062,765.668701171875,733.7178955078125,900.3753662109375
1767330538.3467207,781.77685546875,769.8284912109375,735.0454711914062,845.4129028320312
1767330538.350627,697.2532348632812,703.8912353515625,719.2913208007812,597.860595703125
1767330538.3545332,693.1819458007812,689.4646606445312,723.0971069335938,607.4192504882812
1767330538.3584394,770.7135620117188,755.0479125976562,739.6478271484375,846.7405395507812
1767330538.374245,793.2826538085938,777.1744995117188,735.6650390625,892.2327880859375
1767330538.3781512,717.7867431640625,715.3085327148438,718.9373168945312,659.8150634765625
1767330538.3820574,678.8439331054688,674.7726440429688,723.0086059570312,551.1292114257812
1767330538.3859637,745.3121948242188,721.8580322265625,725.3982543945312,776.6434936523438
1767330538.44942,795.67236328125,779.564208984375,730.7086791992188,922.7675170898438
1767330538.4533262,742.9225463867188,746.020263671875,727.6109619140625,733.9833984375
1767330538.4572325,675.3921508789062,671.8519287109375,709.5556640625,562.6350708007812
1767330538.4611387,715.3085327148438,696.2796630859375,714.9545288085938,704.9533081054688
1767330538.4256492,796.0263671875,779.3871459960938,736.4615478515625,909.4915161132812
1767330538.4295554,764.9606323242188,768.058349609375,733.3638305664062,806.4700927734375
1767330538.4334617,676.36572265625,677.7818603515625,715.4855346679688,581.1328735351562
1767330538.437368,686.8095092773438,673.0910034179688,714.8660278320312,636.0953369140625
1767330538.4412742,770.7135620117188,759.6502685546875,729.735107421875,869.92919921875
1767330538.4451804,775.669921875,790.3619384765625,743.0110473632812,863.999267578125
1767330538.4490867,697.4302368164062,704.5108032226562,736.1075439453125,613.96875
1767330538.452993,670.7898559570312,650.25634765625,716.37060546875,580.8673706054688
1767330538.4568992,739.3822631835938,727.6109619140625,723.1856079101562,819.2150268554688
1767330538.4608054,784.5205688476562,791.0700073242188,740.8869018554688,906.393798828125
1767330538.4647117,721.2384643554688,722.0350341796875,730.7971801757812,700.439453125
1767330538.468618,660.7886352539062,652.6460571289062,712.29931640625,556.7051391601562
1767330538.4725242,719.9993896484375,718.1407470703125,721.76953125,735.3109741210938
1767330538.4764304,797.6195068359375,797.6195068359375,744.4271240234375,913.7398681640625
1767330538.440486,756.8180541992188,752.0386962890625,737.70068359375,773.811279296875
1767330538.4443922,679.3749389648438,671.8519287109375,720.6189575195312,569.892578125
1767330538.4482985,708.9360961914062,698.40380859375,720.264892578125,671.2323608398438
1767330538.4522047,793.0171508789062,794.0792236328125,735.842041015625,896.5696411132812
1767330538.456111,786.5562133789062,785.9366455078125,748.23291015625,829.4817504882812
1767330538.4600172,698.226806640625,680.0830078125,717.4326782226562,603.2594604492188
1767330538.4639235,685.3933715820312,667.6036376953125,706.9004516601562,617.3319702148438
1767330538.4678297,774.2537841796875,763.8985595703125,739.913330078125,848.1566162109375
1767330538.471736,802.5758666992188,778.7676391601562,747.4363403320312,895.861572265625
1767330538.4756422,713.0073852539062,692.296875,718.05224609375,663.7093505859375
1767330538.4795485,664.328857421875,669.3737182617188,707.2544555664062,565.1132202148438
1767330538.4834547,740.4443359375,755.0479125976562,732.2132568359375,774.8733520507812
1767330538.487361,797.9735107421875,800.8057250976562,745.7547607421875,916.4835205078125
1767330538.4912672,736.196044921875,733.806396484375,726.371826171875,732.7443237304688
1767330538.5764034,670.081787109375,666.1875,714.3349609375,557.4131469726562
1767330538.5803096,714.9545288085938,719.9993896484375,734.7799682617188,702.2095947265625
1767330538.5842159,793.0171508789062,794.4332275390625,750.7111206054688,897.8087158203125
1767330538.5881221,759.2077026367188,750.1800537109375,731.8592529296875,810.8954467773438
1767330538.5920284,666.010498046875,672.5599975585938,706.1923828125,584.8501586914062
1767330538.5959346,679.0209350585938,693.1819458007812,712.7418823242188,627.0676879882812
1767330538.547468,764.0755615234375,769.56298828125,734.6029663085938,870.460205078125
1767330538.5513742,769.8284912109375,767.3502807617188,735.3109741210938,862.317626953125
1767330538.5552804,689.0221557617188,692.473876953125,719.1143188476562,614.9423217773438
1767330538.5591867,668.6657104492188,682.5612182617188,724.9557495117188,571.57421875
1767330538.563093,751.773193359375,741.2409057617188,741.1524047851562,807.709228515625
1767330538.5669992,790.6275024414062,770.27099609375,740.267333984375,894.9765014648438
1767330538.5709054,718.6718139648438,712.2108154296875,723.2741088867188,679.2864379882812
1767330538.5748117,668.6657104492188,673.1795043945312,711.2372436523438,547.5889892578125
1767330538.578718,737.7891845703125,736.196044921875,732.478759765625,725.9293212890625
1767330538.5826242,802.3988037109375,782.307861328125,741.5064697265625,916.041015625
1767330538.5865304,749.4719848632812,743.1880493164062,722.4775390625,771.5986328125
1767330538.5904367,673.97607421875,684.5968627929688,710.9717407226562,553.3418579101562
1767330538.594343,709.0245971679688,699.6429443359375,721.946533203125,668.8427124023438
1767330538.5982492,790.0079345703125,772.483642578125,743.630615234375,898.6937866210938
1767330538.557803,772.306640625,766.376708984375,738.6742553710938,827.4461059570312
1767330538.5617092,686.2784423828125,693.62451171875,713.0958862304688,582.0179443359375
1767330538.5656154,688.2255859375,682.2071533203125,711.3257446289062,604.14453125
1767330538.5695217,775.5814208984375,756.6410522460938,735.7535400390625,851.2543334960938
1767330538.573428,795.849365234375,787.1757202148438,745.1351928710938,884.1787109375
1767330538.5773342,713.803955078125,725.3097534179688,724.6902465820312,643.4413452148438
1767330538.5812404,678.4898681640625,683.7117919921875,724.2476806640625,549.89013671875
1767330538.5851467,743.0995483398438,726.8143920898438,737.523681640625,783.4584350585938
1767330538.589053,788.6803588867188,776.3779296875,737.9661865234375,918.253662109375
1767330538.5929592,730.7086791992188,734.4259033203125,727.1683959960938,720.6189575195312
1767330538.5968654,663.0012817382812,666.6300659179688,713.5384521484375,558.2982177734375
1767330538.6007717,705.3073120117188,695.837158203125,721.6810302734375,710.5292358398438
1767330538.666143,779.918212890625,776.200927734375,737.1696166992188,907.8984375
1767330538.6700492,748.5869750976562,771.0675659179688,731.0626831054688,787.52978515625
1767330538.6739554,669.4622192382812,688.5796508789062,716.7246704101562,566.5293579101562
1767330538.6778617,688.5796508789062,690.3497314453125,721.4154663085938,642.11376953125
1767330538.681768,771.5986328125,771.4215698242188,738.1431884765625,871.6993408203125
1767330538.6856742,773.0147094726562,782.9274291992188,742.2144775390625,850.0152587890625
1767330538.6895804,690.3497314453125,707.2544555664062,722.7431030273438,627.3331909179688
1767330538.6934867,668.6657104492188,676.8082885742188,706.015380859375,602.462890625
1767330538.697393,758.7651977539062,756.9065551757812,731.94775390625,807.2666625976562
1767330538.7012992,808.8598022460938,800.3631591796875,754.6939086914062,866.4774169921875
1767330538.710319,729.735107421875,720.1763916015625,723.0971069335938,678.224365234375
1767330538.7142253,674.153076171875,662.9127807617188,712.5648803710938,559.537353515625
1767330538.7181315,741.594970703125,729.735107421875,729.2925415039062,750.445556640625
1767330538.7220378,807.2666625976562,806.8241577148438,748.23291015625,914.7134399414062
1767330538.725944,761.1548461914062,755.0479125976562,741.5064697265625,760.44677734375
1767330538.7298503,682.3841552734375,667.692138671875,722.2120361328125,565.8212890625
1767330538.7337565,709.90966796875,697.9613037109375,732.478759765625,682.8267211914062
1767330538.7376628,790.1849365234375,795.4067993164062,746.9938354492188,902.6765747070312
1767330538.741569,774.34228515625,786.025146484375,745.1351928710938,813.1965942382812
1767330538.7454753,685.658935546875,678.224365234375,719.3798217773438,592.5502319335938
1767330538.7493815,681.2335815429688,671.2323608398438,715.3085327148438,624.8550415039062
1767330538.7532878,767.52734375,774.4307861328125,743.5421142578125,850.9003295898438
1767330538.757194,787.2642211914062,793.1941528320312,751.8616943359375,883.9132080078125
1767330538.7611003,704.2452392578125,705.7498779296875,737.0811157226562,650.5219116210938
1767330538.7361958,661.2311401367188,667.692138671875,725.3097534179688,565.5557861328125
1767330538.740102,734.6029663085938,746.8168334960938,733.2753295898438,778.8561401367188
1767330538.7440083,788.8573608398438,791.60107421875,745.3121948242188,907.4558715820312
1767330538.7479146,725.3982543945312,719.1143188476562,729.8236083984375,714.3349609375
1767330538.7518208,662.9127807617188,659.7265625,712.9188842773438,544.2257080078125
1767330538.755727,714.8660278320312,719.3798217773438,729.4695434570312,701.8555908203125
1767330538.7596333,793.0171508789062,795.849365234375,756.2869873046875,889.57763671875
1767330538.7635396,754.4283447265625,746.7283325195312,744.338623046875,785.1400756835938
1767330538.8320594,671.8519287109375,664.328857421875,720.7074584960938,574.31787109375
1767330538.8359656,690.26123046875,690.8807983398438,723.5396728515625,643.3528442382812
1767330538.7951384,775.669921875,776.9089965820312,744.9581909179688,883.0281372070312
1767330538.7990446,778.41357421875,773.0147094726562,749.2949829101562,848.8646850585938
1767330538.8029509,687.6060791015625,681.3220825195312,718.4947509765625,617.4204711914062
1767330538.806857,673.6220703125,676.6312866210938,713.98095703125,592.9042358398438
1767330538.8107634,759.2962036132812,755.66748046875,740.1788330078125,829.3047485351562
1767330538.8146696,792.7516479492188,776.7319946289062,743.8076171875,906.1282958984375
1767330538.8185759,720.7074584960938,709.1130981445312,724.7787475585938,680.9680786132812
1767330538.822482,677.516357421875,680.1715087890625,719.4683227539062,570.9546508789062
1767330538.8263884,744.9581909179688,740.9754028320312,740.1788330078125,759.3847045898438
1767330538.8302946,805.9390869140625,785.0515747070312,750.8881225585938,915.864013671875
1767330538.8342009,749.91455078125,734.6914672851562,731.4166870117188,767.9698486328125
1767330538.838107,672.6484985351562,674.8611450195312,711.3257446289062,561.927001953125
1767330538.7899308,707.9625244140625,701.3245239257812,720.264892578125,689.8187255859375
1767330538.793837,790.0079345703125,772.306640625,742.1259765625,915.510009765625
1767330538.7977433,768.6779174804688,762.7479858398438,734.7799682617188,825.2334594726562
1767330538.8016496,679.8175048828125,692.119873046875,715.3085327148438,580.6018676757812
1767330538.8055558,687.4290161132812,687.0750122070312,726.017822265625,617.68603515625
1767330538.809462,776.9974975585938,756.6410522460938,746.020263671875,859.8394775390625
1767330538.8133683,785.84814453125,782.3963623046875,736.1075439453125,872.2303466796875
1767330538.8172746,702.2095947265625,724.6017456054688,720.087890625,635.4757690429688
1767330538.8211808,675.7462158203125,692.473876953125,725.663818359375,555.4660034179688
1767330538.825087,748.3214111328125,733.4523315429688,729.6466064453125,789.2113647460938
1767330538.8289933,792.0435791015625,771.8641357421875,732.8328247070312,910.9961547851562
1767330538.8328996,723.80517578125,731.1511840820312,726.7258911132812,690.26123046875
1767330538.8368058,663.3552856445312,670.3472900390625,712.7418823242188,538.4727783203125
1767330538.840712,718.3177490234375,707.3429565429688,728.5845336914062,715.2200317382812
1767330538.8540916,788.23779296875,785.1400756835938,744.8696899414062,904.7122192382812
1767330538.857998,749.91455078125,764.6066284179688,730.8856811523438,770.093994140625
1767330538.8619041,673.2680053710938,683.0037231445312,715.7510986328125,556.35107421875
1767330538.8658104,697.3417358398438,694.4210205078125,718.8488159179688,647.3356323242188
1767330538.9203665,782.307861328125,772.9262084960938,740.3558349609375,881.7890625
1767330538.9242728,784.0780029296875,780.09521484375,742.302978515625,841.961181640625
1767330538.928179,700.9705200195312,705.2188110351562,727.9649658203125,589.0099487304688
1767330538.9320853,675.834716796875,664.15185546875,717.4326782226562,585.9122314453125
1767330538.9359915,757.0835571289062,742.2144775390625,731.0626831054688,838.5094604492188
1767330538.9398978,797.6195068359375,798.9470825195312,749.0294799804688,894.0914306640625
1767330538.943804,716.0166015625,723.7166748046875,725.663818359375,667.869140625
1767330538.9477103,660.3460693359375,662.5587768554688,706.2808837890625,555.2890014648438
1767330538.9516165,730.26611328125,726.4603271484375,724.0706787109375,754.2513427734375
1767330538.9555228,795.849365234375,803.81494140625,746.9053344726562,908.429443359375
1767330538.959429,745.1351928710938,750.2685546875,742.1259765625,744.9581909179688
1767330538.9633353,666.2760009765625,657.1598510742188,720.9729614257812,558.03271484375
1767330538.9672415,703.5372314453125,698.8463745117188,727.7879638671875,689.0221557617188
1767330538.9711478,789.2113647460938,798.7700805664062,747.6134033203125,901.614501953125
1767330538.9224894,766.8192749023438,778.41357421875,743.1880493164062,797.3539428710938
1767330538.9263957,679.1094360351562,675.3036499023438,716.0166015625,575.6455078125
1767330538.930302,681.8531494140625,671.4093627929688,710.7062377929688,624.7665405273438
1767330538.9342082,768.412353515625,768.8549194335938,736.5501098632812,852.31640625
1767330538.9381144,786.025146484375,789.742431640625,746.8168334960938,868.24755859375
1767330538.9420207,709.6441650390625,708.5820922851562,724.6902465820312,637.2459106445312
1767330538.945927,674.8611450195312,671.4093627929688,713.7154541015625,572.105224609375
1767330538.9498332,750.091552734375,749.6490478515625,736.196044921875,791.4240112304688
1767330538.9537394,804.2574462890625,800.0091552734375,747.0823364257812,906.3052978515625
1767330538.9576457,737.2581176757812,727.9649658203125,729.2925415039062,705.7498779296875
1767330538.961552,670.8783569335938,663.7093505859375,711.9453125,548.1199951171875
1767330538.9654582,718.40625,723.1856079101562,725.2212524414062,719.910888671875
1767330538.9693644,796.7344360351562,800.8057250976562,754.8709106445312,897.2776489257812
1767330538.9732707,760.3582763671875,751.1536254882812,735.3994750976562,772.2181396484375
1767330538.9643893,674.8611450195312,670.435791015625,707.4314575195312,568.8305053710938
1767330538.9682956,701.2360229492188,699.8199462890625,724.9557495117188,646.8931274414062
1767330538.9722018,784.343505859375,774.4307861328125,745.0466918945312,885.50634765625
1767330538.976108,776.200927734375,764.2525634765625,739.736328125,846.6520385742188
1767330539.05684,688.048583984375,686.1014404296875,721.946533203125,603.2594604492188
1767330539.0607462,671.763427734375,679.552001953125,721.592529296875,592.9927368164062
1767330539.0646524,755.5789794921875,753.4547729492188,742.1259765625,835.500244140625
1767330539.0685587,784.2550048828125,770.447998046875,746.5513305664062,897.72021484375
1767330539.072465,703.7142333984375,700.1739501953125,722.7431030273438,661.8507080078125
1767330539.0763712,655.4782104492188,673.1795043945312,711.9453125,553.4303588867188
1767330539.0402951,725.8408203125,744.5156860351562,722.7431030273438,778.236572265625
1767330539.0442014,784.8745727539062,790.7160034179688,741.2409057617188,933.4767456054688
1767330539.0481076,728.9385375976562,737.9661865234375,730.443115234375,742.6570434570312
1767330539.0520139,669.9932861328125,680.6140747070312,728.5845336914062,523.603759765625
1767330539.0559201,713.3613891601562,702.12109375,737.0811157226562,674.9496459960938
1767330539.0598264,784.9630737304688,767.2617797851562,734.7799682617188,911.2616577148438
1767330539.0637326,763.8985595703125,756.9065551757812,736.1075439453125,808.240234375
1767330539.0676389,683.3577270507812,688.7566528320312,723.4511108398438,576.4420166015625
1767330539.0715451,690.26123046875,692.0313720703125,720.087890625,626.359619140625
1767330539.0754514,776.9089965820312,761.8629150390625,734.9569702148438,870.7257690429688
1767330539.0793576,789.0343627929688,778.3250732421875,745.4891967773438,870.9027709960938
1767330539.0832639,699.9969482421875,707.7855224609375,726.8143920898438,623.5274658203125
1767330539.0871701,677.693359375,680.1715087890625,732.3902587890625,561.75
1767330539.0910764,758.05712890625,738.4971923828125,742.1259765625,808.5057983398438
1767330539.0499432,793.63671875,777.6170654296875,731.1511840820312,917.899658203125
1767330539.0538495,722.12353515625,730.26611328125,723.3626098632812,691.3233032226562
1767330539.0577557,666.364501953125,674.153076171875,713.2728881835938,554.138427734375
1767330539.061662,721.5040283203125,713.98095703125,728.3189697265625,742.47998046875
1767330539.0655682,787.0872192382812,781.4227905273438,746.7283325195312,917.6341552734375
1767330539.0694745,745.3121948242188,753.4547729492188,735.0454711914062,768.3238525390625
1767330539.0733807,665.3909301757812,670.8783569335938,721.1499633789062,560.5994262695312
1767330539.077287,692.0313720703125,684.4197998046875,725.4867553710938,664.5944213867188
1767330539.0811932,778.7676391601562,777.1744995117188,744.338623046875,892.5868530273438
1767330539.0850995,769.2089233398438,784.2550048828125,742.7455444335938,837.8013916015625
1767330539.0890057,687.9600830078125,700.9705200195312,727.0798950195312,582.1949462890625
1767330539.092912,679.1094360351562,667.4265747070312,712.6533813476562,594.3203125
1767330539.1753507,759.0307006835938,747.0823364257812,722.3890380859375,848.5106811523438
1767330539.179257,785.4940795898438,792.7516479492188,739.8248291015625,881.966064453125
1767330539.1831632,708.405029296875,714.6890258789062,721.5040283203125,656.8058471679688
1767330539.1870694,665.4794311523438,658.221923828125,714.9545288085938,566.17529296875
1767330539.1909757,734.33740234375,727.3453979492188,731.8592529296875,770.6250610351562
1767330539.194882,792.30908203125,792.5746459960938,748.23291015625,904.0926513671875
1767330539.1987882,738.8512573242188,735.4879760742188,743.0110473632812,723.982177734375
1767330539.2026944,670.9668579101562,663.1782836914062,713.1843872070312,547.677490234375
1767330539.2066007,710.6177368164062,706.369384765625,718.8488159179688,692.8279418945312
1767330539.210507,785.4940795898438,792.9286499023438,741.594970703125,899.1362915039062
1767330539.1705058,764.2525634765625,780.3607177734375,743.5421142578125,783.1929321289062
1767330539.174412,681.4990844726562,680.8795776367188,719.8223876953125,569.1845092773438
1767330539.1783183,688.3140869140625,680.9680786132812,710.3521728515625,641.3171997070312
1767330539.1822245,776.6434936523438,777.9710693359375,737.6121826171875,867.6280517578125
1767330539.1861308,785.4940795898438,779.7412109375,742.47998046875,859.4854125976562
1767330539.190037,700.1739501953125,688.8451538085938,722.7431030273438,622.8193969726562
1767330539.1939433,673.97607421875,664.2403564453125,712.122314453125,578.7432250976562
1767330539.1978495,753.0122680664062,751.5076904296875,724.8672485351562,812.4000244140625
1767330539.2017558,792.5746459960938,801.5137939453125,744.16162109375,909.4915161132812
1767330539.205662,718.05224609375,725.2212524414062,731.3281860351562,697.518798828125
1767330539.2095683,662.293212890625,664.0633544921875,716.193603515625,558.9177856445312
1767330539.2134745,722.9201049804688,725.7523193359375,732.124755859375,743.3650512695312
1767330539.2058473,791.778076171875,797.6195068359375,758.4111328125,901.3489379882812
1767330539.2097535,741.77197265625,742.2144775390625,738.1431884765625,759.4732055664062
1767330539.2136598,660.08056640625,659.7265625,706.9004516601562,572.3707275390625
1767330539.217566,693.4474487304688,696.3681640625,722.9201049804688,667.4265747070312
1767330539.2214723,781.1572875976562,785.1400756835938,741.4179077148438,899.8443603515625
1767330539.2253785,770.0054931640625,772.5722045898438,736.2845458984375,843.4657592773438
1767330539.2292848,685.4818725585938,688.6681518554688,718.3177490234375,596.35595703125
1767330539.233191,678.1358642578125,687.517578125,717.521240234375,602.6399536132812
1767330539.2370973,762.2169189453125,762.482421875,739.0282592773438,846.5635375976562
1767330539.2410035,787.706787109375,771.5986328125,744.4271240234375,887.718994140625
