timestamp,tp9,af7,af8,tp10
1767330552.294075,788.3262939453125,776.9089965820312,747.701904296875,878.8683471679688
1767330552.2979813,707.2544555664062,707.4314575195312,729.1155395507812,645.4769897460938
1767330552.3018875,667.692138671875,685.7474365234375,718.40625,563.0775756835938
1767330552.3057938,738.1431884765625,752.7467651367188,735.3109741210938,776.6434936523438
1767330552.2920678,716.9901733398438,722.6546020507812,729.3810424804688,691.6773681640625
1767330552.295974,793.9022216796875,768.6779174804688,745.7547607421875,890.28564453125
1767330552.2998803,757.880126953125,739.1167602539062,729.735107421875,793.2826538085938
1767330552.3037865,678.3128662109375,685.1278686523438,715.3970336914062,566.17529296875
1767330552.3076928,698.7578735351562,701.3245239257812,725.0442504882812,636.36083984375
1767330552.3915517,781.6883544921875,766.7307739257812,742.9225463867188,876.3016357421875
1767330552.395458,775.1388549804688,766.376708984375,733.7178955078125,851.2543334960938
1767330552.3601198,690.5267944335938,704.0682373046875,714.6890258789062,606.0916748046875
1767330552.364026,676.8082885742188,683.7117919921875,715.2200317382812,580.6018676757812
1767330552.3679323,749.2949829101562,740.7984008789062,733.3638305664062,814.7897338867188
1767330552.3718386,782.9274291992188,781.953857421875,738.3201904296875,889.4890747070312
1767330552.3757448,716.8131713867188,726.8143920898438,728.4959716796875,669.727783203125
1767330552.379651,668.046142578125,685.1278686523438,717.875244140625,565.2017211914062
1767330552.3835573,728.3189697265625,726.7258911132812,719.0258178710938,775.9354248046875
1767330552.3874636,793.7252197265625,789.3883666992188,751.6846923828125,896.8351440429688
1767330552.3913698,745.3121948242188,754.0743408203125,743.630615234375,728.053466796875
1767330552.395276,668.400146484375,672.5599975585938,713.4498901367188,561.1304321289062
1767330552.3991823,703.979736328125,690.5267944335938,724.6902465820312,677.0737915039062
1767330552.4030886,785.84814453125,775.2273559570312,741.3294067382812,892.2327880859375
1767330552.4069948,768.9434204101562,771.8641357421875,734.6029663085938,814.8782348632812
1767330552.410901,687.1635131835938,688.9336547851562,719.1143188476562,580.4248046875
1767330552.405012,686.8980102539062,676.9852905273438,723.0086059570312,611.93310546875
1767330552.4089181,770.7135620117188,760.5353393554688,745.4006958007812,846.7405395507812
1767330552.4128244,784.8745727539062,792.0435791015625,742.0374755859375,864.2647705078125
1767330552.4167306,704.15673828125,723.0086059570312,729.3810424804688,618.3055419921875
1767330552.420637,672.9140014648438,663.3552856445312,725.5753173828125,551.4832153320312
1767330552.4245431,743.1880493164062,728.053466796875,724.336181640625,787.2642211914062
1767330552.4284494,792.9286499023438,797.9735107421875,734.4259033203125,896.8351440429688
1767330552.4323556,732.478759765625,740.7098999023438,727.87646484375,702.12109375
1767330552.436262,666.7185668945312,665.0369262695312,712.8303833007812,553.5189208984375
1767330552.4401681,716.9901733398438,708.051025390625,726.371826171875,713.8924560546875
1767330552.4440744,792.3975830078125,795.9378662109375,748.055908203125,899.0477905273438
1767330552.4479806,755.5789794921875,773.2802124023438,739.0282592773438,776.4664306640625
1767330552.451887,668.6657104492188,682.295654296875,711.2372436523438,564.4051513671875
1767330552.4557931,688.048583984375,690.084228515625,716.0166015625,642.4677734375
1767330552.4538736,776.3779296875,777.7940673828125,736.6386108398438,875.3280639648438
1767330552.45778,777.6170654296875,794.5217895507812,745.9317626953125,835.0576782226562
1767330552.5031714,690.8807983398438,696.01416015625,728.6730346679688,603.0824584960938
1767330552.5070777,666.2760009765625,662.293212890625,707.0774536132812,603.4364624023438
1767330552.510984,749.2064819335938,756.37548828125,729.3810424804688,826.7380981445312
1767330552.5148902,787.7952880859375,792.8401489257812,752.30419921875,892.8523559570312
1767330552.5187964,714.9545288085938,712.0338134765625,733.5408935546875,680.260009765625
1767330552.5227027,664.5944213867188,664.15185546875,714.157958984375,565.2017211914062
1767330552.526609,726.2833251953125,726.5488891601562,725.5753173828125,753.6318359375
1767330552.5305152,791.955078125,788.8573608398438,737.7891845703125,908.6065063476562
1767330552.4825668,743.4535522460938,731.6822509765625,728.053466796875,748.6754760742188
1767330552.486473,671.3208618164062,661.2311401367188,718.3177490234375,554.492431640625
1767330552.4903793,706.6349487304688,708.7590942382812,724.6902465820312,677.9588623046875
1767330552.4942856,790.2734375,801.4252319335938,748.3214111328125,880.1959228515625
1767330552.4981918,773.8997802734375,771.775634765625,749.3834838867188,802.6643676757812
1767330552.502098,680.6140747070312,678.224365234375,716.2821044921875,590.7800903320312
1767330552.5060043,681.8531494140625,687.517578125,717.521240234375,615.9158935546875
1767330552.5099106,771.4215698242188,767.704345703125,743.5421142578125,850.7233276367188
1767330552.5138168,785.9366455078125,776.6434936523438,741.948974609375,874.6200561523438
1767330552.517723,703.5372314453125,699.8199462890625,719.9993896484375,641.4942016601562
1767330552.5216293,669.1967163085938,673.8875732421875,714.6005249023438,571.1316528320312
1767330552.5255356,746.8168334960938,748.8524780273438,731.94775390625,793.1941528320312
1767330552.5294418,795.849365234375,784.7860717773438,744.7811889648438,907.54443359375
1767330552.533348,723.628173828125,725.5753173828125,733.9833984375,700.9705200195312
1767330552.5404837,662.0277099609375,674.330078125,716.9016723632812,550.3326416015625
1767330552.54439,721.76953125,725.663818359375,737.523681640625,707.7855224609375
1767330552.5482962,789.91943359375,776.4664306640625,752.6582641601562,891.0822143554688
1767330552.5522025,745.1351928710938,739.559326171875,730.0006103515625,782.8389282226562
1767330552.5561087,670.1702880859375,684.5968627929688,717.4326782226562,568.387939453125
1767330552.560015,691.2348022460938,702.298095703125,723.8936767578125,650.433349609375
1767330552.5639212,767.7928466796875,770.8905639648438,734.4259033203125,882.6741333007812
1767330552.5678275,765.5802001953125,774.4307861328125,737.70068359375,843.5543212890625
1767330552.5717337,683.3577270507812,702.7406616210938,724.8672485351562,602.10888671875
1767330552.57564,669.90478515625,682.47265625,722.7431030273438,592.9042358398438
1767330552.6539173,755.4019165039062,740.1788330078125,735.1339721679688,834.4381103515625
1767330552.6578236,786.8217163085938,771.0675659179688,743.5421142578125,886.5684204101562
1767330552.6617298,711.6798095703125,714.157958984375,728.4959716796875,660.7886352539062
1767330552.665636,673.3565063476562,679.6405029296875,725.9293212890625,548.8280639648438
1767330552.6250556,740.4443359375,728.23046875,741.0639038085938,753.0122680664062
1767330552.6289618,789.742431640625,783.1929321289062,736.196044921875,915.4214477539062
1767330552.632868,734.160400390625,756.5525512695312,726.9028930664062,733.2753295898438
1767330552.6367743,667.1610717773438,687.7830810546875,717.875244140625,551.0407104492188
1767330552.6406806,704.15673828125,699.2888793945312,726.2833251953125,690.6152954101562
1767330552.6445868,778.9446411132812,767.2617797851562,742.302978515625,896.7466430664062
1767330552.648493,762.6594848632812,761.2433471679688,740.6213989257812,803.7264404296875
1767330552.6523993,684.9508666992188,691.5003662109375,721.76953125,579.539794921875
1767330552.6563056,687.1635131835938,676.36572265625,713.98095703125,628.6608276367188
1767330552.6602118,773.7227783203125,752.5697631835938,733.3638305664062,861.2555541992188
1767330552.664118,787.0872192382812,787.6182861328125,737.4351196289062,867.6280517578125
1767330552.6680243,707.0774536132812,721.3269653320312,729.1155395507812,623.4389038085938
1767330552.645253,675.4806518554688,675.3921508789062,724.0706787109375,569.8040771484375
1767330552.6491592,741.3294067382812,738.9397583007812,724.6902465820312,808.8598022460938
1767330552.6530654,787.1757202148438,795.849365234375,739.1167602539062,898.6937866210938
1767330552.6569717,729.55810546875,732.3017578125,731.1511840820312,691.4118041992188
1767330552.660878,668.4886474609375,661.585205078125,711.8568115234375,556.9706420898438
1767330552.6647842,718.9373168945312,710.3521728515625,720.6189575195312,731.94775390625
1767330552.6686904,786.5562133789062,791.60107421875,738.4971923828125,903.0305786132812
1767330552.6725967,746.2857666015625,767.704345703125,736.373046875,767.0847778320312
1767330552.676503,671.0553588867188,680.7910766601562,723.5396728515625,571.2201538085938
1767330552.6804092,692.9164428710938,695.5716552734375,726.5488891601562,659.549560546875
1767330552.6843154,771.1560668945312,780.6262817382812,737.3466186523438,880.107421875
1767330552.6882217,769.739990234375,787.4412231445312,743.2765502929688,826.20703125
1767330552.692128,684.5083618164062,683.2692260742188,730.7086791992188,589.6295166015625
1767330552.6960342,667.51513671875,654.9472045898438,714.7775268554688,607.9503173828125
1767330552.6938648,753.7203369140625,756.021484375,729.912109375,839.1289672851562
1767330552.697771,781.0687866210938,797.7965087890625,739.8248291015625,881.1694946289062
1767330552.7523806,702.3865966796875,709.90966796875,724.7787475585938,660.4345703125
1767330552.7562869,656.7173461914062,659.903564453125,715.3085327148438,565.7327880859375
1767330552.760193,730.0006103515625,742.5685424804688,737.70068359375,759.4732055664062
1767330552.7640994,793.63671875,803.3723754882812,752.2156982421875,894.8880004882812
1767330552.7680056,732.9213256835938,725.7523193359375,729.8236083984375,741.1524047851562
1767330552.7719119,664.6829223632812,654.4161376953125,713.8924560546875,566.2637939453125
1767330552.775818,710.440673828125,705.9268798828125,726.8143920898438,694.9520874023438
1767330552.7797244,784.6090698242188,794.2562255859375,746.374267578125,909.4915161132812
1767330552.7836306,756.37548828125,766.4652099609375,734.0718994140625,827.0036010742188
1767330552.7875369,674.4185791015625,675.0381469726562,711.8568115234375,593.5238037109375
1767330552.762768,687.3405151367188,689.9072265625,730.1776123046875,605.4721069335938
1767330552.7666743,782.7504272460938,780.5377807617188,759.561767578125,834.7036743164062
1767330552.7705805,786.2906494140625,770.8905639648438,741.6834716796875,867.1854858398438
1767330552.7744868,699.7314453125,687.87158203125,718.1407470703125,628.5723266601562
1767330552.778393,675.2151489257812,672.9140014648438,714.3349609375,572.3707275390625
1767330552.7822993,758.5881958007812,748.6754760742188,735.9305419921875,801.0712280273438
1767330552.7862055,799.2125854492188,778.0595703125,744.6041870117188,898.251220703125
1767330552.7901118,727.3453979492188,718.9373168945312,725.9293212890625,689.9957275390625
1767330552.750374,671.9404296875,675.9232177734375,711.9453125,550.8637084960938
1767330552.7542803,729.735107421875,729.8236083984375,726.2833251953125,730.8856811523438
1767330552.7581866,798.7700805664062,788.7688598632812,741.948974609375,911.4386596679688
1767330552.7620928,751.773193359375,748.1444091796875,731.0626831054688,760.6238403320312
1767330552.765999,672.471435546875,676.8082885742188,715.9281005859375,555.7315673828125
1767330552.7699053,703.0061645507812,711.3257446289062,725.7523193359375,655.3012084960938
1767330552.7738116,788.414794921875,776.3779296875,745.84326171875,881.8775634765625
1767330552.7777178,768.8549194335938,751.5076904296875,732.0362548828125,841.1646118164062
1767330552.781624,685.1278686523438,685.7474365234375,716.8131713867188,600.0732421875
1767330552.7855303,682.8267211914062,688.2255859375,723.0086059570312,604.4100341796875
1767330552.7894366,766.376708984375,755.9329833984375,735.5765380859375,848.3336181640625
1767330552.7933428,791.6895751953125,778.8561401367188,739.2937622070312,890.9052124023438
1767330552.797249,714.6890258789062,719.4683227539062,724.9557495117188,658.6644897460938
1767330552.8011553,675.3921508789062,680.260009765625,715.9281005859375,567.7684326171875
1767330552.923972,743.8961181640625,726.4603271484375,727.1683959960938,779.1216430664062
1767330552.9278781,800.6287231445312,780.6262817382812,743.5421142578125,909.6685791015625
1767330552.9317844,737.1696166992188,741.1524047851562,732.8328247070312,724.8672485351562
1767330552.9356906,671.763427734375,686.1014404296875,726.2833251953125,546.7924194335938
1767330552.9002287,719.73388671875,709.5556640625,737.523681640625,694.8635864257812
1767330552.904135,789.8309326171875,766.376708984375,737.70068359375,911.9697265625
1767330552.9080412,757.880126953125,758.3226318359375,734.2489013671875,795.4067993164062
1767330552.9119475,677.7818603515625,689.8187255859375,717.875244140625,563.608642578125
1767330552.9158537,693.801513671875,685.5704345703125,715.66259765625,632.112548828125
1767330552.91976,775.3158569335938,762.9249877929688,737.7891845703125,861.5211181640625
1767330552.9236662,778.41357421875,781.2457885742188,745.4891967773438,838.4208984375
1767330552.9275725,701.590087890625,707.697021484375,729.1155395507812,604.8526000976562
1767330552.9314787,682.8267211914062,672.2059326171875,717.1671752929688,576.7075805664062
1767330552.935385,759.3847045898438,744.6926879882812,731.770751953125,803.637939453125
1767330552.9392912,793.2826538085938,791.6895751953125,737.7891845703125,887.4534301757812
1767330552.9431975,723.8936767578125,739.6478271484375,733.806396484375,670.6128540039062
1767330552.9471037,669.9932861328125,675.4806518554688,730.3546142578125,542.9866333007812
1767330552.95101,721.4154663085938,713.803955078125,719.1143188476562,747.52490234375
1767330552.9301834,786.4676513671875,791.6895751953125,729.55810546875,907.4558715820312
1767330552.9340897,746.8168334960938,760.3582763671875,729.55810546875,755.0479125976562
1767330552.937996,675.0381469726562,672.8255004882812,715.0430297851562,571.751220703125
1767330552.9419022,707.4314575195312,693.1819458007812,726.5488891601562,681.4990844726562
1767330552.9458084,787.1757202148438,781.599853515625,744.8696899414062,895.861572265625
1767330552.9497147,773.3687133789062,779.8297119140625,744.6041870117188,825.5875244140625
1767330552.953621,689.2876586914062,679.72900390625,724.2476806640625,600.5158081054688
1767330552.9575272,684.154296875,668.046142578125,719.6453857421875,623.969970703125
1767330552.9614334,767.0847778320312,759.6502685546875,740.267333984375,855.6796875
1767330552.9653397,789.5654296875,795.67236328125,753.3662719726562,877.6292724609375
1767330552.969246,713.4498901367188,711.8568115234375,738.231689453125,644.326416015625
1767330552.9731522,671.2323608398438,657.513916015625,713.4498901367188,584.49609375
1767330552.9770584,737.4351196289062,735.6650390625,728.7615356445312,792.0435791015625
1767330552.9809647,789.8309326171875,793.9022216796875,746.4627685546875,907.54443359375
1767330552.9925675,727.3453979492188,727.1683959960938,732.3902587890625,724.5132446289062
1767330552.9964738,659.1954956054688,662.3817138671875,718.6718139648438,559.3602905273438
1767330553.00038,709.4671020507812,715.4855346679688,732.5673217773438,707.0774536132812
1767330553.0042863,790.9815063476562,795.1412963867188,749.2064819335938,899.932861328125
1767330553.0081925,758.4111328125,757.0835571289062,739.6478271484375,790.450439453125
1767330553.0120988,673.3565063476562,669.9932861328125,721.946533203125,571.92822265625
1767330553.016005,691.1463012695312,690.438232421875,725.663818359375,631.758544921875
1767330553.0199113,777.882568359375,780.1837158203125,738.40869140625,875.0625610351562
1767330553.0238175,778.1480712890625,770.8905639648438,732.2132568359375,865.680908203125
1767330553.0277238,701.2360229492188,690.438232421875,734.2489013671875,590.7800903320312
1767330552.9902391,683.2692260742188,670.9668579101562,726.7258911132812,572.5477905273438
1767330552.9941454,760.6238403320312,752.3927001953125,732.3017578125,822.2242431640625
1767330552.9980516,798.8585815429688,785.5826416015625,741.6834716796875,898.1627197265625
1767330553.001958,723.7166748046875,716.193603515625,729.912109375,686.4554443359375
1767330553.0058641,663.4437866210938,673.8875732421875,724.1591796875,561.0419311523438
1767330553.0097704,726.4603271484375,740.7098999023438,741.3294067382812,752.6582641601562
1767330553.0136766,796.9999389648438,793.7252197265625,750.6226196289062,922.9445190429688
1767330553.017583,744.6041870117188,739.559326171875,731.59375,757.880126953125
1767330553.0214891,666.010498046875,672.7369995117188,712.7418823242188,559.9798583984375
1767330553.0253954,700.3509521484375,715.5740966796875,726.9913940429688,671.58642578125
1767330553.0293016,784.8745727539062,785.5826416015625,744.2501220703125,884.6212768554688
1767330553.033208,763.633056640625,756.37548828125,728.5845336914062,827.711669921875
1767330553.0371141,676.4542236328125,682.295654296875,712.0338134765625,591.4880981445312
1767330553.0410204,678.4898681640625,685.3933715820312,720.1763916015625,613.1721801757812
1767330553.02796,760.6238403320312,755.0479125976562,736.373046875,852.6704711914062
1767330553.0318663,783.1044311523438,780.3607177734375,738.4971923828125,874.0889892578125
1767330553.0357726,704.0682373046875,715.66259765625,723.628173828125,637.5999755859375
1767330553.0396788,668.5772094726562,678.9324340820312,717.6982421875,563.1660766601562
1767330553.043585,744.16162109375,735.842041015625,734.9569702148438,786.9987182617188
1767330553.0474913,789.742431640625,784.16650390625,742.3914794921875,901.4374389648438
1767330553.0513976,724.0706787109375,735.0454711914062,723.80517578125,704.6878051757812
1767330553.0553038,662.5587768554688,684.6853637695312,714.7775268554688,538.8268432617188
1767330553.1253228,717.3441772460938,717.521240234375,735.2224731445312,699.6429443359375
1767330553.129229,792.132080078125,772.5722045898438,742.6570434570312,909.3145141601562
1767330553.1331353,754.7824096679688,752.5697631835938,734.0718994140625,780.8032836914062
1767330553.1370416,674.8611450195312,683.4462280273438,720.6189575195312,560.3338623046875
1767330553.1409478,694.8635864257812,686.4554443359375,717.875244140625,649.4597778320312
1767330553.144854,783.1044311523438,766.376708984375,742.3914794921875,881.966064453125
1767330553.1487603,783.2814331054688,780.44921875,746.5513305664062,845.7669677734375
1767330553.1526666,695.4830932617188,709.6441650390625,723.3626098632812,605.4721069335938
1767330553.1565728,675.9232177734375,676.9852905273438,714.3349609375,593.2582397460938
1767330553.160479,754.5169067382812,747.2593383789062,732.7443237304688,826.6495971679688
1767330553.12538,789.0343627929688,791.778076171875,744.338623046875,893.2948608398438
1767330553.1292863,720.5304565429688,732.6558227539062,731.6822509765625,668.1346435546875
1767330553.1331925,673.1795043945312,666.5415649414062,721.946533203125,552.6338500976562
1767330553.1370988,733.0983276367188,705.83837890625,724.1591796875,770.7135620117188
1767330553.141005,795.9378662109375,783.989501953125,739.913330078125,920.9973754882812
1767330553.1449113,747.52490234375,747.2593383789062,738.8512573242188,745.7547607421875
1767330553.1488175,672.9140014648438,665.2139282226562,718.05224609375,561.4844360351562
1767330553.1527238,706.5464477539062,696.4566650390625,719.1143188476562,686.8095092773438
1767330553.15663,785.671142578125,788.7688598632812,737.1696166992188,895.3305053710938
1767330553.1605363,766.6422729492188,781.1572875976562,740.6213989257812,809.4793090820312
1767330553.1644425,684.8623657226562,683.7117919921875,720.3533935546875,585.9122314453125
1767330553.1683488,686.4554443359375,674.330078125,711.0602416992188,621.580322265625
1767330553.172255,766.9962768554688,766.5537719726562,730.1776123046875,852.8474731445312
1767330553.1761613,782.5734252929688,802.7528686523438,745.1351928710938,856.3876953125
1767330553.1785407,701.0590209960938,712.2108154296875,732.6558227539062,614.32275390625
1767330553.182447,666.4530029296875,656.00927734375,705.661376953125,573.3442993164062
1767330553.1863532,745.4891967773438,741.2409057617188,721.946533203125,795.9378662109375
1767330553.1902595,797.7965087890625,809.3908081054688,744.6926879882812,893.825927734375
1767330553.1941657,732.3902587890625,736.9041137695312,731.770751953125,702.8291625976562
1767330553.198072,668.3116455078125,661.3196411132812,714.6005249023438,553.96142578125
1767330553.2019782,722.9201049804688,713.3613891601562,724.8672485351562,715.839599609375
1767330553.2058845,799.74365234375,789.8309326171875,741.5064697265625,899.1362915039062
1767330553.2606716,758.8536987304688,744.4271240234375,726.6373901367188,775.0503540039062
1767330553.2645779,674.5956420898438,666.6300659179688,708.22802734375,569.715576171875
1767330553.268484,692.7394409179688,693.8900146484375,716.8131713867188,657.867919921875
1767330553.2723904,782.307861328125,795.2297973632812,744.338623046875,880.0189208984375
1767330553.2762966,782.307861328125,788.8573608398438,753.3662719726562,834.8806762695312
1767330553.2802029,689.9957275390625,683.7117919921875,726.19482421875,617.0664672851562
1767330553.284109,677.870361328125,672.8255004882812,715.839599609375,610.9595336914062
1767330553.2880154,765.845703125,765.668701171875,737.70068359375,839.74853515625
1767330553.2919216,792.8401489257812,787.0872192382812,741.3294067382812,897.543212890625
1767330553.2958279,713.626953125,704.2452392578125,722.3890380859375,674.5071411132812
1767330553.2477202,667.4265747070312,661.939208984375,714.3349609375,566.17529296875
1767330553.2516265,734.5144653320312,732.3902587890625,725.3097534179688,760.8008422851562
1767330553.2555327,793.813720703125,785.7596435546875,738.0546875,911.7042236328125
1767330553.259439,742.1259765625,732.0362548828125,731.4166870117188,740.0018310546875
1767330553.2633452,671.6749267578125,671.9404296875,712.8303833007812,556.5281372070312
1767330553.2672515,709.4671020507812,721.1499633789062,727.6109619140625,679.6405029296875
1767330553.2711577,786.7332153320312,781.599853515625,749.737548828125,879.2223510742188
1767330553.275064,759.73876953125,746.2857666015625,727.87646484375,808.5057983398438
1767330553.2789702,673.8875732421875,679.1979370117188,710.6177368164062,579.3627319335938
1767330553.2828765,675.9232177734375,686.8095092773438,719.9993896484375,616.0928955078125
1767330553.2867827,760.44677734375,750.091552734375,732.478759765625,859.8394775390625
1767330553.290689,769.8284912109375,763.2789916992188,734.4259033203125,859.3084106445312
1767330553.2945952,683.1807250976562,704.0682373046875,722.0350341796875,613.791748046875
1767330553.2985015,654.5932006835938,681.3220825195312,716.193603515625,554.0499267578125
1767330553.2736578,740.3558349609375,741.1524047851562,736.2845458984375,791.1585083007812
1767330553.277564,788.9458618164062,782.5734252929688,746.6398315429688,896.6581420898438
1767330553.2814703,718.3177490234375,726.017822265625,732.3902587890625,690.7037963867188
1767330553.2853765,663.8863525390625,682.8267211914062,725.5753173828125,544.2257080078125
1767330553.2892828,721.2384643554688,718.6718139648438,738.7627563476562,713.1843872070312
1767330553.293189,781.5113525390625,767.2617797851562,738.9397583007812,911.4386596679688
1767330553.2970953,738.6742553710938,746.8168334960938,723.628173828125,775.0503540039062
1767330553.3010015,669.55078125,686.5440063476562,716.8131713867188,565.644287109375
1767330553.4114742,697.7843017578125,693.0049438476562,728.23046875,669.4622192382812
1767330553.4153805,776.9089965820312,764.8721313476562,741.6834716796875,895.507568359375
1767330553.366984,764.9606323242188,769.6514892578125,740.3558349609375,841.607177734375
1767330553.3708901,685.1278686523438,701.76708984375,725.0442504882812,601.6663818359375
1767330553.3747964,677.516357421875,681.0565795898438,713.98095703125,604.9411010742188
1767330553.3787026,762.12841796875,750.7996215820312,731.5052490234375,843.1117553710938
1767330553.382609,793.99072265625,788.1492919921875,746.2857666015625,885.3292846679688
1767330553.3865151,714.5120239257812,724.0706787109375,728.9385375976562,663.4437866210938
1767330553.3904214,666.8070678710938,672.9140014648438,709.5556640625,590.7800903320312
1767330553.3943276,744.338623046875,732.6558227539062,738.7627563476562,764.1640625
1767330553.398234,802.7528686523438,786.025146484375,753.5433349609375,887.8074951171875
1767330553.4021401,741.6834716796875,738.0546875,732.478759765625,729.4695434570312
1767330553.4060464,674.5071411132812,672.6484985351562,719.9993896484375,554.8464965820312
1767330553.4099526,709.90966796875,701.8555908203125,716.9901733398438,694.4210205078125
1767330553.413859,786.4676513671875,776.6434936523438,734.4259033203125,890.9052124023438
1767330553.4177651,762.305419921875,763.8985595703125,741.4179077148438,792.3975830078125
1767330553.3696299,678.4898681640625,672.9140014648438,722.8316040039062,573.60986328125
1767330553.373536,689.0221557617188,670.8783569335938,717.0786743164062,626.8906860351562
1767330553.3774424,778.41357421875,761.951416015625,734.9569702148438,863.3796997070312
1767330553.3813486,790.2734375,799.3010864257812,745.2236938476562,852.139404296875
1767330553.3852549,707.1659545898438,712.8303833007812,730.089111328125,610.1629638671875
1767330553.389161,677.6048583984375,660.3460693359375,714.7775268554688,588.21337890625
1767330553.3930674,756.021484375,738.9397583007812,730.7086791992188,814.6127319335938
1767330553.3969736,797.7965087890625,795.0527954101562,744.8696899414062,897.2776489257812
1767330553.4008799,726.2833251953125,724.1591796875,723.7166748046875,695.5716552734375
1767330553.404786,668.1346435546875,666.4530029296875,714.2464599609375,564.1396484375
1767330553.4086924,721.4154663085938,729.6466064453125,732.124755859375,742.2144775390625
1767330553.4125986,789.2998657226562,803.2838745117188,743.2765502929688,909.3145141601562
1767330553.4165049,750.2685546875,754.33984375,733.806396484375,772.2181396484375
1767330553.420411,672.3829345703125,664.5944213867188,717.521240234375,572.1937255859375
1767330553.4263952,698.8463745117188,690.5267944335938,716.5476684570312,672.117431640625
1767330553.4303014,783.989501953125,792.2205810546875,739.4707641601562,887.89599609375
1767330553.4869394,777.1744995117188,780.44921875,750.7996215820312,823.9058837890625
1767330553.4908457,692.7394409179688,682.8267211914062,725.663818359375,612.7296752929688
1767330553.494752,684.4197998046875,680.8795776367188,716.2821044921875,617.509033203125
1767330553.4986582,771.6871337890625,772.306640625,735.4879760742188,839.2174682617188
1767330553.5025644,793.7252197265625,789.0343627929688,741.0639038085938,886.8339233398438
1767330553.5064707,709.6441650390625,704.4222412109375,723.80517578125,658.044921875
1767330553.510377,667.7806396484375,672.117431640625,713.7154541015625,561.8385009765625
1767330553.5142832,736.5501098632812,750.5341186523438,731.1511840820312,765.1376342773438
1767330553.5181894,790.450439453125,794.167724609375,743.7191162109375,899.6673583984375
1767330553.5220957,728.8500366210938,728.23046875,725.1327514648438,713.2728881835938
1767330553.526002,661.8507080078125,664.8599243164062,717.6097412109375,540.419921875
1767330553.5299082,709.2901000976562,718.4947509765625,731.1511840820312,680.9680786132812
1767330553.5338144,790.8045043945312,787.1757202148438,743.3650512695312,874.7085571289062
1767330553.5377207,758.4996337890625,744.2501220703125,728.23046875,786.2021484375
1767330553.4895344,669.2852172851562,674.4185791015625,709.3786010742188,564.6707153320312
1767330553.4934406,682.3841552734375,699.8199462890625,717.7867431640625,619.544677734375
1767330553.4973469,766.4652099609375,772.7492065429688,735.6650390625,859.6624755859375
1767330553.5012531,767.704345703125,770.447998046875,737.4351196289062,845.85546875
1767330553.5051594,684.2427978515625,697.0762329101562,718.1407470703125,607.0652465820312
1767330553.5090656,670.7013549804688,686.5440063476562,718.7603149414062,576.4420166015625
1767330553.5129719,747.52490234375,746.8168334960938,734.9569702148438,812.8425903320312
1767330553.5168781,783.1044311523438,772.5722045898438,739.2937622070312,896.6581420898438
1767330553.5207844,716.1051025390625,712.476318359375,731.0626831054688,688.5796508789062
1767330553.5246906,663.0012817382812,674.7726440429688,722.9201049804688,558.6522827148438
1767330553.5285969,726.6373901367188,730.7971801757812,736.9041137695312,734.8684692382812
1767330553.5325031,791.8665771484375,782.0423583984375,744.338623046875,920.6433715820312
1767330553.5364094,746.8168334960938,750.6226196289062,730.3546142578125,774.2537841796875
1767330553.5403156,672.6484985351562,691.5888671875,721.592529296875,568.4764404296875
1767330553.531397,697.9613037109375,699.6429443359375,729.735107421875,680.5255737304688
1767330553.5353034,777.7940673828125,764.341064453125,739.2052612304688,900.1983642578125
1767330553.5392096,766.9077758789062,766.7307739257812,736.196044921875,832.7565307617188
1767330553.5431159,686.5440063476562,701.6785888671875,724.4246826171875,595.2053833007812
1767330553.6737344,683.2692260742188,680.7025756835938,717.6982421875,615.1193237304688
1767330553.6776407,766.5537719726562,750.1800537109375,732.478759765625,854.9716186523438
1767330553.681547,785.4940795898438,785.671142578125,740.5328979492188,879.75341796875
1767330553.6854532,706.7234497070312,732.3902587890625,726.6373901367188,638.7505493164062
1767330553.6370056,674.8611450195312,683.977294921875,728.407470703125,552.7223510742188
1767330553.6409118,740.3558349609375,722.3890380859375,731.6822509765625,781.599853515625
1767330553.644818,787.7952880859375,779.6527099609375,733.3638305664062,905.0662231445312
1767330553.6487243,728.6730346679688,743.1880493164062,728.8500366210938,706.1038818359375
1767330553.6526306,662.6472778320312,674.330078125,715.839599609375,552.27978515625
1767330553.6565368,707.1659545898438,701.76708984375,719.0258178710938,703.979736328125
1767330553.660443,784.2550048828125,780.6262817382812,738.6742553710938,888.1614990234375
1767330553.6643493,759.3847045898438,769.2974243164062,735.3109741210938,772.2181396484375
1767330553.6682556,678.7554321289062,678.224365234375,712.6533813476562,561.3074340820312
1767330553.6721618,693.3589477539062,681.2335815429688,718.40625,633.0861206054688
1767330553.676068,778.1480712890625,771.1560668945312,740.7984008789062,866.5659790039062
1767330553.6799743,782.130859375,787.6182861328125,743.8961181640625,840.7221069335938
1767330553.6838806,700.262451171875,702.12109375,728.407470703125,595.7364501953125
1767330553.6877868,676.2772216796875,659.7265625,716.1051025390625,592.7272338867188
1767330553.6475086,753.808837890625,741.0639038085938,733.0983276367188,831.2518920898438
1767330553.6514149,786.8217163085938,796.2918701171875,744.6041870117188,894.7109985351562
1767330553.6553211,712.8303833007812,718.4947509765625,721.2384643554688,686.366943359375
1767330553.6592274,665.2139282226562,658.4874267578125,711.8568115234375,573.5213623046875
1767330553.6631336,730.1776123046875,721.3269653320312,729.912109375,760.3582763671875
1767330553.6670399,797.2654418945312,793.0171508789062,744.9581909179688,914.2708740234375
1767330553.6709461,745.3121948242188,742.47998046875,735.3109741210938,760.7123413085938
1767330553.6748524,670.081787109375,661.585205078125,723.1856079101562,570.7776489257812
1767330553.6787586,703.8912353515625,695.7486572265625,728.053466796875,686.012939453125
1767330553.6826649,783.9010009765625,790.096435546875,742.302978515625,893.3833618164062
1767330553.6865711,765.3146362304688,765.845703125,744.8696899414062,806.5586547851562
1767330553.6904774,674.330078125,660.5231323242188,714.3349609375,588.4788818359375
1767330553.7117088,670.7898559570312,670.3472900390625,709.0245971679688,618.4825439453125
1767330553.715615,761.4203491210938,772.483642578125,741.0639038085938,847.0945434570312
1767330553.7631252,781.0687866210938,788.1492919921875,749.0294799804688,874.3544921875
1767330553.7670314,699.0233764648438,705.661376953125,722.0350341796875,646.6276245117188
1767330553.7709377,666.2760009765625,678.224365234375,714.0694580078125,560.8649291992188
1767330553.774844,743.0995483398438,756.8180541992188,741.77197265625,764.8721313476562
1767330553.7787502,790.450439453125,787.3527221679688,745.5777587890625,900.9949340820312
1767330553.7826564,725.0442504882812,712.0338134765625,724.2476806640625,706.8119506835938
1767330553.7865627,662.9127807617188,655.4782104492188,710.440673828125,538.38427734375
1767330553.790469,715.839599609375,724.7787475585938,723.5396728515625,705.2188110351562
1767330553.757589,787.7952880859375,802.5758666992188,739.2052612304688,920.2008056640625
1767330553.7614954,752.0386962890625,767.704345703125,732.124755859375,791.1585083007812
1767330553.7654016,679.4634399414062,693.62451171875,730.26611328125,535.99462890625
1767330553.7693079,695.3060913085938,698.6693725585938,731.94775390625,628.9263305664062
1767330553.773214,776.9089965820312,767.1732788085938,740.7098999023438,884.5327758789062
1767330553.7771204,775.7584228515625,768.8549194335938,746.9053344726562,850.3692626953125
1767330553.7810266,686.012939453125,687.4290161132812,722.4775390625,609.1008911132812
1767330553.7849329,671.763427734375,672.8255004882812,719.73388671875,587.9478759765625
1767330553.788839,756.5525512695312,747.9674072265625,742.302978515625,830.1898193359375
1767330553.7927454,789.6539306640625,778.6791381835938,747.52490234375,898.9592895507812
1767330553.7554188,714.8660278320312,716.7246704101562,728.5845336914062,677.870361328125
1767330553.759325,668.400146484375,680.7910766601562,718.5833129882812,564.1396484375
1767330553.7632313,738.0546875,735.1339721679688,742.0374755859375,753.2777709960938
1767330553.7671375,796.8229370117188,781.3342895507812,749.3834838867188,922.7675170898438
1767330553.7710438,738.40869140625,741.5064697265625,729.912109375,759.2962036132812
1767330553.77495,665.83349609375,682.7382202148438,714.5120239257812,555.64306640625
1767330553.7788563,707.697021484375,700.5280151367188,726.8143920898438,688.5796508789062
1767330553.7827625,787.2642211914062,769.1204223632812,748.23291015625,905.5972900390625
1767330553.7866688,762.5709838867188,761.1548461914062,740.1788330078125,814.0816650390625
1767330553.790575,677.2507934570312,693.4474487304688,720.264892578125,579.539794921875
1767330553.7944813,683.977294921875,688.048583984375,721.76953125,622.6423950195312
1767330553.7983875,772.8377075195312,762.5709838867188,742.9225463867188,862.2291259765625
1767330553.8022938,787.7952880859375,785.9366455078125,746.8168334960938,873.7349853515625
1767330553.8062,706.1923828125,722.2120361328125,727.87646484375,633.0861206054688
1767330553.8909438,677.693359375,684.8623657226562,723.5396728515625,559.6258544921875
1767330553.89485,751.9501953125,727.9649658203125,730.1776123046875,798.3275146484375
1767330553.8987563,797.3539428710938,778.7676391601562,741.6834716796875,908.9605102539062
1767330553.9026625,737.877685546875,744.6926879882812,733.0098266601562,699.8199462890625
1767330553.9065688,677.2507934570312,678.9324340820312,713.803955078125,556.35107421875
1767330553.910475,728.8500366210938,713.7154541015625,725.3982543945312,727.6109619140625
1767330553.8798463,798.1505126953125,794.2562255859375,746.2857666015625,907.8099365234375
1767330553.8837526,759.73876953125,772.306640625,741.594970703125,773.4572143554688
1767330553.8876588,680.7025756835938,681.4105834960938,721.1499633789062,571.2201538085938
1767330553.891565,691.5003662109375,680.8795776367188,718.05224609375,660.257568359375
1767330553.8954713,766.1112060546875,763.987060546875,731.8592529296875,882.5856323242188
1767330553.8993776,763.7215576171875,787.0872192382812,740.3558349609375,839.2174682617188
1767330553.9032838,684.5083618164062,706.4578857421875,732.7443237304688,591.8421630859375
1767330553.90719,670.2587890625,663.4437866210938,714.9545288085938,597.9490966796875
1767330553.9110963,754.4283447265625,745.4891967773438,733.0983276367188,842.4036865234375
1767330553.9150026,785.4055786132812,798.7700805664062,748.055908203125,888.072998046875
1767330553.8666968,710.7947387695312,720.087890625,727.4338989257812,665.0369262695312
1767330553.870603,663.0897827148438,657.9564208984375,712.9188842773438,561.572998046875
1767330553.8745093,726.4603271484375,727.0798950195312,723.3626098632812,759.2077026367188
1767330553.8784156,793.3711547851562,805.0540161132812,746.9053344726562,904.004150390625
1767330553.8823218,740.09033203125,749.1179809570312,743.7191162109375,736.6386108398438
1767330553.886228,663.8863525390625,664.15185546875,721.1499633789062,553.8729248046875
1767330553.8901343,703.7142333984375,703.802734375,722.4775390625,683.623291015625
1767330553.8940406,783.5469970703125,796.5574340820312,738.3201904296875,886.7454223632812
1767330553.8979468,767.7928466796875,775.1388549804688,744.338623046875,789.742431640625
1767330553.901853,679.0209350585938,669.3737182617188,715.9281005859375,579.0972290039062
1767330553.9057593,679.6405029296875,674.0645751953125,705.9268798828125,627.7757568359375
1767330553.9096656,774.0767822265625,774.0767822265625,735.1339721679688,850.9888305664062
1767330553.9135718,791.955078125,783.1929321289062,744.5156860351562,863.2911987304688
1767330553.917478,705.9268798828125,690.8807983398438,722.2120361328125,635.3872680664062
1767330553.936721,675.1266479492188,665.3909301757812,712.0338134765625,581.2213745117188
1767330553.9406273,756.021484375,760.1812744140625,731.94775390625,802.13330078125
1767330554.0035179,800.0091552734375,798.239013671875,743.630615234375,903.0305786132812
1767330554.007424,728.4959716796875,723.0971069335938,725.0442504882812,700.6165161132812
1767330554.0113304,665.3909301757812,663.2667846679688,711.59130859375,555.9970703125
1767330554.0152366,714.6890258789062,717.521240234375,725.7523193359375,726.017822265625
1767330554.0191429,791.1585083007812,798.5045776367188,753.8973388671875,896.9236450195312
1767330554.023049,752.30419921875,746.2857666015625,739.8248291015625,775.0503540039062
1767330554.0269554,664.6829223632812,657.69091796875,705.2188110351562,570.6891479492188
1767330554.0308616,690.1727294921875,699.1118774414062,718.1407470703125,653.0885620117188
1767330553.9950771,780.0067138671875,781.1572875976562,741.948974609375,887.8074951171875
1767330553.9989834,768.5894165039062,765.0491333007812,733.3638305664062,840.279541015625
1767330554.0028896,677.4277954101562,687.0750122070312,711.3257446289062,593.1697387695312
1767330554.006796,674.6841430664062,684.6853637695312,721.2384643554688,591.8421630859375
1767330554.0107021,762.12841796875,755.7559814453125,745.666259765625,833.7301025390625
1767330554.0146084,782.3963623046875,773.7227783203125,744.338623046875,879.576416015625
1767330554.0185146,701.1475219726562,706.6349487304688,725.5753173828125,648.397705078125
1767330554.022421,658.9299926757812,678.4013671875,712.0338134765625,548.7395629882812
1767330554.0263271,735.5765380859375,745.666259765625,735.7535400390625,745.4891967773438
1767330554.0302334,792.132080078125,776.6434936523438,743.984619140625,897.8087158203125
1767330554.0341396,737.7891845703125,726.8143920898438,719.2913208007812,731.770751953125
1767330554.038046,669.9932861328125,679.9945068359375,709.2901000976562,545.1107788085938
1767330554.0419521,704.5993041992188,707.4314575195312,727.1683959960938,688.9336547851562
1767330554.0458584,779.918212890625,768.412353515625,740.0018310546875,893.825927734375
1767330554.0248077,756.37548828125,759.0307006835938,731.4166870117188,789.742431640625
1767330554.028714,674.9496459960938,698.0498046875,724.8672485351562,562.8120727539062
1767330554.0326202,685.2163696289062,693.8900146484375,723.4511108398438,621.6688232421875
1767330554.0365264,771.0675659179688,762.3939208984375,734.6914672851562,865.680908203125
1767330554.0404327,778.9446411132812,772.6607055664062,740.3558349609375,859.927978515625
1767330554.044339,697.2532348632812,709.8211669921875,723.2741088867188,623.615966796875
1767330554.0482452,676.7197875976562,685.5704345703125,721.592529296875,578.3006591796875
1767330554.0521514,752.6582641601562,730.5316772460938,735.0454711914062,823.7288818359375
1767330554.0560577,791.4240112304688,772.129638671875,738.231689453125,919.3157348632812
1767330554.059964,727.1683959960938,734.0718994140625,726.1063232421875,696.3681640625
1767330554.115312,675.3921508789062,678.1358642578125,717.521240234375,569.0960083007812
1767330554.1192183,735.2224731445312,717.521240234375,733.1868286132812,756.2869873046875
1767330554.1231246,802.3988037109375,788.8573608398438,748.409912109375,920.289306640625
1767330554.1270308,758.8536987304688,763.8985595703125,736.7271118164062,766.022705078125
1767330554.130937,681.4990844726562,685.9244384765625,716.37060546875,568.4764404296875
1767330554.1348433,707.4314575195312,696.3681640625,714.7775268554688,678.3128662109375
1767330554.1387496,790.2734375,771.5986328125,732.5673217773438,894.5339965820312
1767330554.1426558,777.2630004882812,774.165283203125,738.8512573242188,831.6944580078125
1767330554.146562,687.517578125,693.7130126953125,717.521240234375,617.5975341796875
1767330554.1504683,678.6669311523438,679.9945068359375,710.263671875,633.8826904296875
1767330554.115268,770.27099609375,773.0147094726562,747.7904052734375,828.419677734375
1767330554.1191742,794.8757934570312,801.0712280273438,759.6502685546875,859.0429077148438
1767330554.1230805,709.1130981445312,711.3257446289062,729.912109375,658.3104248046875
1767330554.1269867,665.83349609375,663.5323486328125,716.1051025390625,568.9190063476562
1767330554.130893,734.9569702148438,730.26611328125,729.4695434570312,775.5814208984375
1767330554.1347992,789.6539306640625,796.203369140625,746.5513305664062,899.755859375
1767330554.1387055,728.23046875,739.6478271484375,730.9741821289062,716.9016723632812
1767330554.1426117,661.1426391601562,660.3460693359375,712.476318359375,555.3775024414062
1767330554.146518,708.5820922851562,701.944091796875,722.0350341796875,703.5372314453125
1767330554.1504242,787.2642211914062,792.9286499023438,741.0639038085938,896.1270751953125
1767330554.1543305,759.2077026367188,771.95263671875,744.4271240234375,773.2802124023438
1767330554.1582367,675.3036499023438,671.4978637695312,718.1407470703125,567.7684326171875
1767330554.162143,686.8980102539062,677.516357421875,712.5648803710938,643.3528442382812
1767330554.1660492,779.2101440429688,778.41357421875,739.736328125,866.034912109375
1767330554.153085,788.9458618164062,785.7596435546875,742.47998046875,856.210693359375
1767330554.1569912,703.3601684570312,693.0049438476562,723.628173828125,627.0676879882812
1767330554.1608975,682.3841552734375,672.9140014648438,724.0706787109375,591.3110961914062
1767330554.1648037,761.0663452148438,757.3490600585938,741.0639038085938,813.9046630859375
1767330554.16871,798.7700805664062,793.3711547851562,745.2236938476562,901.0834350585938
1767330554.1726162,727.4338989257812,716.5476684570312,726.7258911132812,692.5624389648438
1767330554.1765225,672.471435546875,659.1954956054688,714.157958984375,560.8649291992188
1767330554.1804287,730.6201782226562,733.0098266601562,728.8500366210938,745.7547607421875
1767330554.2354267,801.602294921875,803.637939453125,754.6939086914062,903.1190795898438
1767330554.239333,754.2513427734375,736.196044921875,735.7535400390625,765.9342041015625
1767330554.2432392,671.4978637695312,665.3909301757812,713.626953125,577.1500854492188
1767330554.2471454,704.15673828125,711.9453125,729.912109375,675.3921508789062
1767330554.2510517,784.4320068359375,776.9089965820312,740.3558349609375,894.9765014648438
1767330554.254958,768.412353515625,752.3927001953125,735.4879760742188,832.9335327148438
1767330554.2588642,682.7382202148438,683.4462280273438,722.7431030273438,597.68359375
1767330554.2627704,682.11865234375,697.3417358398438,720.6189575195312,609.720458984375
1767330554.2666767,765.2261352539062,775.0503540039062,738.231689453125,847.9796142578125
1767330554.270583,779.0331420898438,781.8653564453125,742.47998046875,875.68212890625
1767330554.2661722,697.69580078125,703.979736328125,723.2741088867188,640.255126953125
1767330554.2700784,663.4437866210938,678.9324340820312,713.98095703125,563.5201416015625
1767330554.2739847,743.5421142578125,750.1800537109375,742.8340454101562,769.2974243164062
1767330554.277891,790.6275024414062,777.3515014648438,745.666259765625,901.79150390625
1767330554.2817972,720.44189453125,719.0258178710938,722.300537109375,716.9016723632812
1767330554.2857034,659.9920654296875,672.117431640625,714.0694580078125,542.7211303710938
1767330554.2524931,713.0958862304688,715.0430297851562,727.3453979492188,705.2188110351562
1767330554.2563994,786.1136474609375,781.3342895507812,747.1708374023438,903.1190795898438
1767330554.2603056,752.3927001953125,753.5433349609375,738.7627563476562,782.8389282226562
1767330554.264212,673.3565063476562,681.2335815429688,718.8488159179688,563.3430786132812
1767330554.2681181,693.2704467773438,685.8359375,719.556884765625,637.7769775390625
1767330554.2720244,777.6170654296875,755.66748046875,737.2581176757812,876.6557006835938
1767330554.2759306,778.7676391601562,768.5009155273438,740.6213989257812,853.9095458984375
1767330554.279837,701.4130249023438,708.1395263671875,723.1856079101562,614.9423217773438
1767330554.2837431,688.1370849609375,687.7830810546875,730.7971801757812,582.9915161132812
1767330554.2876494,757.880126953125,733.3638305664062,738.231689453125,823.8173828125
1767330554.3115895,788.8573608398438,772.306640625,734.33740234375,905.9512939453125
1767330554.3154957,720.264892578125,731.1511840820312,729.735107421875,682.0301513671875
1767330554.319402,668.22314453125,674.2415771484375,719.556884765625,567.5914306640625
1767330554.3233082,730.5316772460938,713.7154541015625,731.1511840820312,762.9249877929688
1767330554.3272145,793.9022216796875,776.6434936523438,741.5064697265625,913.3858032226562
1767330554.3311207,746.9938354492188,747.2593383789062,731.3281860351562,747.7904052734375
1767330554.356864,671.8519287109375,670.7898559570312,715.0430297851562,559.4487915039062
1767330554.3607702,705.0418090820312,694.8635864257812,722.3890380859375,682.8267211914062
1767330554.3646765,783.7239990234375,786.5562133789062,744.7811889648438,894.7109985351562
1767330554.3685827,761.8629150390625,778.5021362304688,740.8869018554688,815.3207397460938
1767330554.372489,677.6048583984375,693.5360107421875,726.5488891601562,574.140869140625
1767330554.3763952,672.0289306640625,669.2852172851562,715.5740966796875,609.1008911132812
1767330554.3803015,756.37548828125,750.9766235351562,723.628173828125,858.6889038085938
1767330554.3842077,775.4043579101562,795.5838623046875,736.196044921875,868.8671264648438
1767330554.388114,694.155517578125,706.1038818359375,722.0350341796875,636.36083984375
1767330554.3920202,661.1426391601562,653.61962890625,710.7062377929688,575.3799438476562
1767330554.3959265,737.523681640625,733.1868286132812,730.7086791992188,792.2205810546875
1767330554.3998327,791.60107421875,802.9298706054688,745.7547607421875,899.0477905273438
1767330554.403739,730.089111328125,744.16162109375,729.2040405273438,704.4222412109375
1767330554.4076452,666.5415649414062,661.6737060546875,712.6533813476562,551.4832153320312
1767330554.3595514,718.05224609375,704.6878051757812,720.44189453125,712.0338134765625
1767330554.3634577,793.5482177734375,790.5390014648438,736.9041137695312,895.9500732421875
1767330554.367364,764.9606323242188,767.3502807617188,742.1259765625,758.7651977539062
1767330554.3712702,685.2163696289062,668.046142578125,720.7074584960938,557.5902099609375
1767330554.3751764,699.908447265625,679.0209350585938,715.3085327148438,649.8138427734375
1767330554.3790827,786.379150390625,784.343505859375,736.196044921875,867.8935546875
1767330554.382989,786.5562133789062,783.9010009765625,733.7178955078125,843.9083251953125
1767330554.3868952,697.0762329101562,683.0922241210938,716.9016723632812,615.9158935546875
1767330554.3908014,675.65771484375,666.010498046875,710.8832397460938,593.7008056640625
1767330554.3947077,761.2433471679688,758.3226318359375,733.8948974609375,824.6139526367188
1767330554.398614,798.06201171875,796.1148681640625,748.23291015625,894.35693359375
1767330554.4025202,717.0786743164062,714.9545288085938,725.5753173828125,675.5692138671875
1767330554.4064264,666.9840698242188,661.585205078125,713.5384521484375,560.245361328125
1767330554.4103327,728.9385375976562,733.4523315429688,729.0270385742188,756.9950561523438
1767330554.4387605,794.0792236328125,803.1068725585938,747.7904052734375,899.4017944335938
1767330554.4426668,741.1524047851562,734.0718994140625,729.1155395507812,741.77197265625
1767330554.446573,663.1782836914062,659.2839965820312,707.7855224609375,568.5650024414062
1767330554.4504793,707.4314575195312,714.7775268554688,729.1155395507812,687.517578125
1767330554.5288446,785.84814453125,787.706787109375,751.2421264648438,899.2247924804688
1767330554.5327508,755.3134155273438,753.8973388671875,739.0282592773438,815.9403076171875
1767330554.536657,669.1967163085938,674.0645751953125,710.7062377929688,588.1248779296875
1767330554.5405633,679.6405029296875,689.55322265625,715.2200317382812,621.4917602539062
1767330554.4926054,768.058349609375,769.2089233398438,743.4535522460938,860.6360473632812
1767330554.4965117,780.7147827148438,775.0503540039062,748.055908203125,882.14306640625
1767330554.500418,698.7578735351562,699.2888793945312,725.1327514648438,639.1930541992188
1767330554.5043242,666.4530029296875,674.153076171875,715.7510986328125,573.5213623046875
1767330554.5082304,749.3834838867188,755.9329833984375,744.9581909179688,787.7952880859375
1767330554.5121367,797.4424438476562,785.9366455078125,753.7203369140625,895.0650024414062
1767330554.516043,726.5488891601562,711.0602416992188,720.9729614257812,713.1843872070312
1767330554.5199492,672.5599975585938,667.1610717773438,708.9360961914062,557.1476440429688
1767330554.5238554,732.3902587890625,716.37060546875,729.2040405273438,728.053466796875
1767330554.5277617,808.240234375,778.8561401367188,746.020263671875,920.8203735351562
1767330554.531668,764.8721313476562,754.0743408203125,733.8948974609375,784.6975708007812
1767330554.5355742,677.1622924804688,690.084228515625,720.1763916015625,562.9005737304688
1767330554.5394804,706.1038818359375,709.2901000976562,730.089111328125,655.3897094726562
1767330554.5433867,791.3355102539062,778.1480712890625,747.701904296875,891.1707153320312
1767330554.5051827,778.1480712890625,764.5181274414062,743.984619140625,839.571533203125
1767330554.509089,690.1727294921875,688.9336547851562,715.66259765625,598.7456665039062
1767330554.5129952,677.693359375,685.3048706054688,722.9201049804688,585.5582275390625
1767330554.5169015,755.0479125976562,753.5433349609375,742.9225463867188,831.4288940429688
1767330554.5208077,780.5377807617188,780.9802856445312,736.6386108398438,898.7822875976562
1767330554.524714,704.2452392578125,713.7154541015625,722.8316040039062,663.974853515625
1767330554.5286202,658.7529907226562,664.5059204101562,715.4855346679688,563.608642578125
1767330554.5325265,724.5132446289062,722.2120361328125,728.053466796875,768.2353515625
1767330554.5364327,782.9274291992188,790.0079345703125,743.4535522460938,909.2260131835938
1767330554.540339,730.6201782226562,754.0743408203125,740.09033203125,730.8856811523438
1767330554.5442452,662.2047119140625,676.8082885742188,718.40625,553.4303588867188
1767330554.5481515,699.7314453125,693.8900146484375,720.8844604492188,692.0313720703125
1767330554.5520577,776.9089965820312,773.7227783203125,738.3201904296875,891.0822143554688
1767330554.555964,755.2249145507812,771.2445678710938,732.6558227539062,798.8585815429688
1767330554.6278186,679.6405029296875,697.2532348632812,726.19482421875,563.3430786132812
1767330554.6317248,685.3933715820312,681.4990844726562,723.5396728515625,613.4376831054688
1767330554.635631,769.0319213867188,760.269775390625,729.0270385742188,862.7601928710938
1767330554.6395373,784.16650390625,787.0872192382812,745.2236938476562,853.0244750976562
1767330554.6434436,703.3601684570312,702.3865966796875,733.1868286132812,616.5354614257812
1767330554.6473498,674.9496459960938,663.1782836914062,713.8924560546875,571.6627197265625
1767330554.651256,755.1364135742188,742.0374755859375,726.5488891601562,794.2562255859375
1767330554.6551623,807.0896606445312,803.2838745117188,742.1259765625,890.3741455078125
1767330554.6590686,735.4879760742188,737.877685546875,725.7523193359375,691.1463012695312
1767330554.6629748,673.1795043945312,662.8242797851562,709.9981689453125,556.7936401367188
1767330554.6229174,733.3638305664062,713.803955078125,727.2568969726562,728.6730346679688
1767330554.6268237,803.9034423828125,794.2562255859375,746.7283325195312,905.86279296875
1767330554.63073,762.2169189453125,766.376708984375,747.9674072265625,754.9594116210938
1767330554.6346362,682.5612182617188,671.6749267578125,719.9993896484375,554.138427734375
1767330554.6385424,701.6785888671875,683.4462280273438,709.90966796875,668.3116455078125
1767330554.6424487,782.7504272460938,782.9274291992188,739.6478271484375,885.50634765625
1767330554.646355,773.811279296875,780.7147827148438,741.2409057617188,838.06689453125
1767330554.6502612,690.5267944335938,684.4197998046875,715.7510986328125,607.1537475585938
1767330554.6541674,678.3128662109375,675.1266479492188,714.8660278320312,607.0652465820312
1767330554.6580737,758.1456298828125,770.1824951171875,743.3650512695312,842.13818359375
1767330554.66198,784.8745727539062,796.4688720703125,751.6846923828125,891.5247802734375
1767330554.6658862,702.3865966796875,701.3245239257812,726.371826171875,669.2852172851562
1767330554.6555393,655.9207763671875,653.9736328125,714.0694580078125,572.0167236328125
1767330554.6594455,724.6902465820312,740.5328979492188,725.8408203125,775.3158569335938
1767330554.6633518,790.1849365234375,810.7184448242188,752.6582641601562,898.8707885742188
1767330554.667258,735.5765380859375,729.2925415039062,745.666259765625,725.3982543945312
1767330554.6711643,662.7357788085938,650.7874145507812,709.8211669921875,563.2545776367188
1767330554.6750705,713.1843872070312,715.2200317382812,724.5132446289062,696.1026611328125
1767330554.6789768,798.9470825195312,801.5137939453125,752.3927001953125,901.79150390625
1767330554.682883,770.093994140625,766.9077758789062,738.231689453125,801.8677978515625
1767330554.6867893,682.0301513671875,679.3749389648438,713.2728881835938,569.9810791015625
1767330554.6906955,689.8187255859375,695.1290893554688,714.6890258789062,617.5975341796875
1767330554.7532032,780.8917846679688,782.9274291992188,739.913330078125,856.3876953125
1767330554.7571094,788.3262939453125,777.2630004882812,743.8961181640625,860.281982421875
1767330554.7610157,702.6521606445312,695.3060913085938,733.62939453125,612.9066772460938
1767330554.764922,679.552001953125,676.4542236328125,730.7971801757812,565.5557861328125
1767330554.7688282,756.9950561523438,754.2513427734375,736.4615478515625,801.2482299804688
1767330554.7727344,793.813720703125,785.4940795898438,739.913330078125,895.7730712890625
1767330554.7766407,716.2821044921875,715.9281005859375,717.6982421875,697.872802734375
1767330554.780547,661.0541381835938,680.9680786132812,712.476318359375,557.4131469726562
1767330554.7321873,720.44189453125,731.770751953125,729.735107421875,742.5685424804688
1767330554.7360935,786.379150390625,779.564208984375,744.8696899414062,920.3778076171875
1767330554.7399998,739.2937622070312,739.736328125,735.2224731445312,768.5009155273438
1767330554.743906,665.3024291992188,677.2507934570312,717.9637451171875,563.78564453125
1767330554.7478123,698.5808715820312,698.226806640625,730.3546142578125,677.693359375
1767330554.7517185,782.0423583984375,763.633056640625,747.0823364257812,904.0926513671875
1767330554.7556248,770.5365600585938,762.305419921875,740.5328979492188,840.8106079101562
1767330554.759531,682.6497192382812,699.2003784179688,717.1671752929688,604.0560302734375
1767330554.7634373,675.9232177734375,699.2003784179688,724.6017456054688,602.462890625
1767330554.7673435,767.3502807617188,754.0743408203125,747.7904052734375,848.068115234375
1767330554.7712498,790.2734375,770.5365600585938,740.267333984375,899.4902954101562
1767330554.775156,711.5028076171875,721.8580322265625,725.7523193359375,658.044921875
1767330554.7790623,674.8611450195312,681.8531494140625,720.44189453125,575.5570068359375
1767330554.7829685,739.913330078125,727.6109619140625,732.0362548828125,788.7688598632812
1767330554.7606404,791.955078125,781.6883544921875,744.6926879882812,912.4122314453125
1767330554.7645466,734.0718994140625,739.913330078125,726.6373901367188,719.0258178710938
1767330554.768453,669.1967163085938,675.4806518554688,710.086669921875,546.9694213867188
1767330554.7723591,712.8303833007812,701.2360229492188,719.1143188476562,701.4130249023438
1767330554.7762654,787.52978515625,777.1744995117188,738.40869140625,897.3661499023438
1767330554.7801716,757.703125,764.341064453125,735.3994750976562,783.989501953125
1767330554.784078,678.5784301757812,695.4830932617188,722.9201049804688,549.8016357421875
1767330554.7879841,693.2704467773438,688.5796508789062,723.8936767578125,620.7837524414062
1767330554.7918904,771.95263671875,756.9065551757812,733.9833984375,868.424560546875
1767330554.7957966,770.447998046875,778.0595703125,740.0018310546875,835.9427490234375
1767330554.859907,688.7566528320312,704.5108032226562,722.3890380859375,599.542236328125
1767330554.8638132,668.8427124023438,671.2323608398438,712.9188842773438,574.4063720703125
1767330554.8677194,746.4627685546875,740.8869018554688,727.9649658203125,800.45166015625
1767330554.8716257,785.9366455078125,787.0872192382812,737.9661865234375,876.39013671875
1767330554.875532,722.2120361328125,722.8316040039062,725.1327514648438,670.5243530273438
1767330554.8794382,671.0553588867188,666.2760009765625,715.66259765625,555.9970703125
1767330554.8833444,728.4959716796875,724.5132446289062,731.8592529296875,741.0639038085938
1767330554.8872507,801.4252319335938,805.2310180664062,744.8696899414062,912.5007934570312
1767330554.891157,754.4283447265625,769.6514892578125,732.478759765625,762.2169189453125
1767330554.8950632,676.7197875976562,669.727783203125,716.37060546875,554.7579956054688
1767330554.8989694,707.52001953125,685.7474365234375,716.9016723632812,685.4818725585938
1767330554.9028757,792.7516479492188,786.8217163085938,742.9225463867188,908.6065063476562
1767330554.8799367,783.989501953125,775.9354248046875,746.197265625,840.6336059570312
1767330554.883843,696.01416015625,676.01171875,721.592529296875,613.2606811523438
1767330554.8877492,691.4118041992188,678.5784301757812,721.592529296875,632.3780517578125
1767330554.8916554,775.0503540039062,774.2537841796875,741.5064697265625,862.7601928710938
1767330554.8955617,791.955078125,790.6275024414062,746.2857666015625,889.931640625
1767330554.899468,707.9625244140625,697.0762329101562,727.7879638671875,662.3817138671875
1767330554.9033742,666.8070678710938,656.186279296875,717.3441772460938,578.5662231445312
1767330554.9072804,737.6121826171875,736.6386108398438,730.7086791992188,787.706787109375
1767330554.9111867,796.203369140625,806.5586547851562,747.87890625,891.790283203125
1767330554.915093,735.4879760742188,735.4879760742188,731.8592529296875,705.9268798828125
1767330554.9189992,661.4081420898438,662.6472778320312,712.3878173828125,563.2545776367188
1767330554.9229054,711.8568115234375,723.5396728515625,728.4959716796875,706.9004516601562
1767330554.9268117,787.52978515625,796.8229370117188,748.5869750976562,896.1270751953125
1767330554.930718,746.5513305664062,751.0651245117188,741.594970703125,785.0515747070312
1767330554.9261754,662.47021484375,665.3024291992188,717.2556762695312,562.281005859375
1767330554.9300816,679.2864379882812,691.1463012695312,716.193603515625,624.323974609375
1767330554.9339879,763.987060546875,773.63427734375,736.7271118164062,855.7681884765625
1767330554.937894,765.3146362304688,763.2789916992188,740.4443359375,838.7749633789062
1767330554.9418004,687.0750122070312,689.730224609375,721.946533203125,601.3123168945312
1767330554.9457066,668.7542114257812,683.4462280273438,714.2464599609375,572.9017944335938
1767330555.0081325,748.8524780273438,770.1824951171875,740.1788330078125,793.9022216796875
1767330555.0120387,786.5562133789062,789.1228637695312,751.6846923828125,872.6729125976562
1767330555.015945,709.3786010742188,705.0418090820312,723.80517578125,670.9668579101562
1767330555.0198512,660.9656372070312,670.081787109375,712.29931640625,545.81884765625
1767330555.0237575,729.8236083984375,728.6730346679688,723.8936767578125,736.1075439453125
1767330555.0276637,797.3539428710938,775.4043579101562,736.5501098632812,902.4110107421875
1767330555.03157,748.409912109375,736.2845458984375,734.7799682617188,749.560546875
1767330555.0354762,675.3036499023438,677.4277954101562,721.0614624023438,555.2005004882812
1767330555.0022383,713.4498901367188,716.1051025390625,724.4246826171875,679.906005859375
1767330555.0061445,791.8665771484375,779.3871459960938,739.0282592773438,901.3489379882812
1767330555.0100508,775.846923828125,762.482421875,734.5144653320312,823.1978149414062
1767330555.013957,695.7486572265625,703.3601684570312,715.9281005859375,592.7272338867188
1767330555.0178633,696.4566650390625,707.1659545898438,724.1591796875,607.2422485351562
1767330555.0217695,774.2537841796875,758.7651977539062,743.8961181640625,848.3336181640625
1767330555.0256758,781.1572875976562,769.3859252929688,733.8948974609375,886.037353515625
1767330555.029582,697.2532348632812,715.5740966796875,720.5304565429688,644.326416015625
1767330555.0334883,671.0553588867188,684.2427978515625,723.7166748046875,578.5662231445312
1767330555.0373945,744.6926879882812,736.5501098632812,736.2845458984375,801.8677978515625
1767330554.9974856,785.1400756835938,781.2457885742188,739.736328125,910.2880859375
1767330555.001392,721.946533203125,735.1339721679688,730.089111328125,709.3786010742188
1767330555.0052981,664.2403564453125,678.4898681640625,722.5661010742188,553.6959228515625
1767330555.0092044,713.7154541015625,706.369384765625,726.9028930664062,721.76953125
1767330555.0131106,784.2550048828125,777.70556640625,741.0639038085938,909.580078125
1767330555.017017,746.5513305664062,762.2169189453125,734.6029663085938,783.989501953125
1767330555.0209231,672.9140014648438,699.2003784179688,729.6466064453125,563.5201416015625
1767330555.0248294,694.5095825195312,695.5716552734375,733.2753295898438,646.8931274414062
1767330555.0287356,770.8020629882812,767.704345703125,736.9041137695312,889.6661376953125
1767330555.032642,769.3859252929688,788.8573608398438,738.5857543945312,845.9439697265625
1767330555.0365481,688.6681518554688,707.6085205078125,726.9913940429688,608.5698852539062
1767330555.0404544,669.55078125,666.7185668945312,725.9293212890625,597.4180297851562
1767330555.076923,746.020263671875,740.09033203125,733.5408935546875,824.0828857421875
1767330555.0808291,778.41357421875,795.1412963867188,740.3558349609375,883.3821411132812
1767330555.1514802,708.5820922851562,727.9649658203125,731.1511840820312,665.1254272460938
1767330555.1553864,659.903564453125,656.186279296875,715.3085327148438,557.7672119140625
1767330555.1069067,728.407470703125,718.40625,727.699462890625,752.8352661132812
1767330555.110813,793.5482177734375,801.6907958984375,740.5328979492188,904.5352172851562
1767330555.1147192,741.0639038085938,763.1019897460938,737.7891845703125,725.9293212890625
1767330555.1186254,666.364501953125,672.5599975585938,720.8844604492188,542.45556640625
1767330555.1225317,699.8199462890625,693.5360107421875,716.8131713867188,687.4290161132812
1767330555.126438,781.8653564453125,784.16650390625,741.8604736328125,887.3649291992188
1767330555.1303442,766.9077758789062,776.5549926757812,741.594970703125,802.7528686523438
1767330555.1342504,679.4634399414062,680.7910766601562,714.6005249023438,579.4512329101562
1767330555.1381567,678.04736328125,671.4978637695312,714.3349609375,616.4468994140625
1767330555.142063,761.2433471679688,763.7215576171875,733.9833984375,848.2451171875
1767330555.1459692,776.6434936523438,785.1400756835938,741.8604736328125,861.4325561523438
1767330555.1498754,696.4566650390625,700.6165161132812,726.5488891601562,639.0160522460938
1767330555.1537817,659.1069946289062,668.5772094726562,713.3613891601562,571.1316528320312
1767330555.157688,730.0006103515625,746.2857666015625,728.8500366210938,786.9987182617188
1767330555.109752,785.7596435546875,805.8505859375,750.8881225585938,887.8074951171875
1767330555.1136582,725.4867553710938,730.6201782226562,737.7891845703125,691.8543701171875
1767330555.1175644,661.939208984375,659.1954956054688,713.0073852539062,563.4315795898438
1767330555.1214707,718.05224609375,718.4947509765625,727.9649658203125,725.0442504882812
1767330555.125377,794.5217895507812,791.2470092773438,740.1788330078125,903.2960815429688
1767330555.1292832,763.81005859375,747.0823364257812,726.017822265625,781.4227905273438
1767330555.1331894,683.977294921875,664.9484252929688,715.0430297851562,573.4328002929688
1767330555.1370957,701.6785888671875,691.1463012695312,723.8936767578125,657.513916015625
1767330555.141002,790.5390014648438,783.635498046875,741.1524047851562,886.9224243164062
1767330555.1449082,782.7504272460938,773.63427734375,739.1167602539062,850.9003295898438
1767330555.1488144,692.5624389648438,687.6060791015625,716.4591064453125,611.5791015625
1767330555.1527207,681.3220825195312,684.8623657226562,712.0338134765625,601.577880859375
1767330555.156627,763.8985595703125,777.0859985351562,747.1708374023438,823.8173828125
1767330555.1605332,792.0435791015625,789.4768676757812,750.7111206054688,878.9568481445312
1767330555.196561,712.8303833007812,699.0233764648438,717.4326782226562,675.3921508789062
1767330555.2004673,667.7806396484375,670.8783569335938,714.8660278320312,567.7684326171875
1767330555.2781906,734.5144653320312,742.302978515625,733.806396484375,766.7307739257812
1767330555.2820969,788.5033569335938,780.0067138671875,745.2236938476562,912.2352294921875
1767330555.286003,736.5501098632812,736.8156127929688,736.5501098632812,738.7627563476562
1767330555.2899094,669.90478515625,684.154296875,715.3085327148438,555.0234985351562
1767330555.2729263,678.8439331054688,696.01416015625,721.592529296875,632.28955078125
1767330555.2768326,763.7215576171875,769.4744262695312,740.9754028320312,858.0693359375
1767330555.2807388,780.7147827148438,774.6078491210938,752.3927001953125,835.0576782226562
1767330555.284645,696.4566650390625,695.5716552734375,719.556884765625,621.934326171875
1767330555.2885513,668.3116455078125,677.1622924804688,714.8660278320312,568.7420043945312
1767330555.2602508,800.8057250976562,779.564208984375,745.1351928710938,911.4386596679688
1767330555.264157,761.3318481445312,763.81005859375,742.9225463867188,773.5457763671875
1767330555.2680633,681.0565795898438,695.66015625,724.0706787109375,560.5994262695312
1767330555.2719696,705.83837890625,695.2175903320312,731.4166870117188,662.1162109375
1767330555.2758758,785.5826416015625,763.633056640625,738.8512573242188,904.7122192382812
1767330555.279782,774.0767822265625,776.6434936523438,736.01904296875,845.4129028320312
1767330555.2836883,688.2255859375,699.554443359375,722.12353515625,604.8526000976562
1767330555.2875946,679.6405029296875,671.0553588867188,711.8568115234375,612.8181762695312
