timestamp,tp9,af7,af8,tp10
1767330463.3005505,779.0331420898438,772.0411376953125,738.5857543945312,914.2708740234375
1767330463.3044567,758.4111328125,766.9962768554688,737.70068359375,816.9138793945312
1767330463.308363,681.4105834960938,697.872802734375,728.3189697265625,554.2269287109375
1767330463.3122692,691.5003662109375,683.977294921875,725.5753173828125,603.613525390625
1767330463.3161755,773.811279296875,758.4996337890625,735.9305419921875,891.8787841796875
1767330463.3200817,787.2642211914062,793.1056518554688,744.7811889648438,889.4005737304688
1767330463.323988,709.6441650390625,714.4234619140625,727.2568969726562,619.2791137695312
1767330463.3278942,681.941650390625,659.8150634765625,717.521240234375,564.316650390625
1767330463.3039296,671.58642578125,668.1346435546875,714.9545288085938,546.349853515625
1767330463.3078358,725.0442504882812,717.4326782226562,721.4154663085938,733.7178955078125
1767330463.311742,793.99072265625,801.0712280273438,737.1696166992188,932.7687377929688
1767330463.3156483,756.021484375,773.811279296875,742.2144775390625,769.2974243164062
1767330463.3195546,679.8175048828125,672.471435546875,725.5753173828125,536.5256958007812
1767330463.3234608,699.6429443359375,677.1622924804688,715.3970336914062,665.7449951171875
1767330463.327367,782.0423583984375,785.1400756835938,735.7535400390625,912.5007934570312
1767330463.3312733,777.882568359375,782.2193603515625,741.8604736328125,853.5555419921875
1767330463.3351796,690.438232421875,669.0197143554688,720.9729614257812,593.8778076171875
1767330463.3390858,676.1002197265625,660.1690673828125,716.4591064453125,588.5674438476562
1767330463.342992,756.4639892578125,767.7928466796875,736.7271118164062,845.7669677734375
1767330463.309966,783.3699340820312,808.417236328125,750.0030517578125,900.0213623046875
1767330463.3138723,701.5015869140625,703.979736328125,728.407470703125,650.433349609375
1767330463.3177786,655.832275390625,643.2643432617188,710.3521728515625,534.9325561523438
1767330463.3216848,725.3982543945312,729.2925415039062,724.8672485351562,762.2169189453125
1767330463.325591,788.9458618164062,807.6207275390625,746.197265625,910.0225830078125
1767330463.3294973,737.6121826171875,736.196044921875,738.6742553710938,715.0430297851562
1767330463.3334036,664.7714233398438,649.0172729492188,709.2901000976562,538.2957763671875
1767330463.3373098,707.4314575195312,701.944091796875,721.592529296875,689.55322265625
1767330463.341216,790.096435546875,793.3711547851562,750.8881225585938,921.3513793945312
1767330463.3451223,763.5445556640625,753.6318359375,743.1880493164062,818.5955200195312
1767330463.4240596,680.0830078125,661.939208984375,720.7074584960938,566.17529296875
1767330463.4279659,688.7566528320312,685.8359375,722.3890380859375,618.9251098632812
1767330463.4318721,771.775634765625,781.3342895507812,744.9581909179688,879.1338500976562
1767330463.4357784,781.2457885742188,776.6434936523438,747.0823364257812,886.8339233398438
1767330463.4396846,698.40380859375,684.4197998046875,719.0258178710938,621.75732421875
1767330463.4435909,672.7369995117188,664.15185546875,709.9981689453125,555.9085693359375
1767330463.4474971,753.1892700195312,759.73876953125,734.0718994140625,824.8794555664062
1767330463.4514034,798.239013671875,798.8585815429688,742.6570434570312,950.115966796875
1767330463.4553096,725.3097534179688,711.6798095703125,722.4775390625,708.1395263671875
1767330463.4592159,663.7093505859375,661.4081420898438,716.0166015625,533.8704833984375
1767330463.4631221,730.0006103515625,738.0546875,750.6226196289062,704.7763061523438
1767330463.4670284,792.8401489257812,785.1400756835938,758.8536987304688,925.0686645507812
1767330463.4271574,739.559326171875,730.26611328125,732.3017578125,775.5814208984375
1767330463.4310637,664.7714233398438,663.7978515625,715.4855346679688,530.8612670898438
1767330463.43497,700.9705200195312,698.4923095703125,728.9385375976562,650.8759155273438
1767330463.4388762,784.0780029296875,772.9262084960938,746.9938354492188,916.5720825195312
1767330463.4427824,770.447998046875,764.5181274414062,743.4535522460938,854.6176147460938
1767330463.4466887,683.7117919921875,680.1715087890625,719.73388671875,584.6731567382812
1767330463.450595,680.0830078125,676.5427856445312,724.6902465820312,577.0615844726562
1767330463.4545012,769.2089233398438,757.9686279296875,748.6754760742188,840.1910400390625
1767330463.4584074,786.1136474609375,781.2457885742188,739.559326171875,910.465087890625
1767330463.4623137,701.0590209960938,713.3613891601562,721.76953125,645.9195556640625
1767330463.46622,663.2667846679688,672.0289306640625,715.5740966796875,536.6141967773438
1767330463.4701262,734.6914672851562,726.017822265625,732.9213256835938,780.8032836914062
1767330463.4740324,786.6447143554688,781.6883544921875,747.1708374023438,929.0514526367188
1767330463.4779387,730.443115234375,734.7799682617188,732.8328247070312,718.40625
1767330463.4604125,672.117431640625,673.1795043945312,719.4683227539062,525.5509033203125
1767330463.4643188,717.9637451171875,708.1395263671875,724.4246826171875,694.4210205078125
1767330463.468225,792.8401489257812,786.1136474609375,740.7098999023438,921.0858764648438
1767330463.4721313,760.6238403320312,766.9962768554688,732.5673217773438,802.2218017578125
1767330463.4760375,681.1450805664062,694.155517578125,716.8131713867188,541.924560546875
1767330463.4799438,698.1383056640625,688.2255859375,726.8143920898438,607.9503173828125
1767330463.5504801,771.0675659179688,756.198486328125,739.0282592773438,892.7638549804688
1767330463.5543864,773.2802124023438,784.16650390625,741.3294067382812,874.2659912109375
1767330463.5582926,697.6072998046875,707.9625244140625,723.8936767578125,603.7020263671875
1767330463.5621989,676.1002197265625,659.8150634765625,711.9453125,569.1845092773438
1767330463.5661051,755.2249145507812,736.9041137695312,731.94775390625,828.5082397460938
1767330463.5700114,796.5574340820312,803.991943359375,743.5421142578125,922.14794921875
1767330463.5227482,722.6546020507812,740.09033203125,722.5661010742188,684.5083618164062
1767330463.5266545,665.83349609375,658.9299926757812,704.9533081054688,543.8717041015625
1767330463.5305607,725.7523193359375,719.2913208007812,723.1856079101562,744.2501220703125
1767330463.534467,788.5918579101562,800.7172241210938,745.7547607421875,928.077880859375
1767330463.5383732,742.7455444335938,763.5445556640625,740.09033203125,752.481201171875
1767330463.5422795,669.9932861328125,671.0553588867188,726.017822265625,523.1611938476562
1767330463.5461857,693.1819458007812,683.977294921875,721.5040283203125,664.15185546875
1767330463.550092,777.6170654296875,783.7239990234375,740.5328979492188,910.2880859375
1767330463.5539982,768.6779174804688,775.846923828125,738.6742553710938,830.1898193359375
1767330463.5579045,679.72900390625,666.010498046875,719.6453857421875,574.140869140625
1767330463.5618107,673.3565063476562,659.903564453125,717.521240234375,591.3110961914062
1767330463.565717,758.4996337890625,762.8364868164062,734.6914672851562,848.9531860351562
1767330463.5696232,782.7504272460938,800.274658203125,742.5685424804688,882.320068359375
1767330463.5735295,703.8912353515625,700.9705200195312,720.1763916015625,631.758544921875
1767330463.5399566,671.4093627929688,648.5747680664062,712.2108154296875,544.9337768554688
1767330463.5438628,744.6041870117188,741.5064697265625,730.5316772460938,780.8032836914062
1767330463.547769,795.1412963867188,820.0115966796875,752.9237670898438,911.2616577148438
1767330463.5516753,732.2132568359375,737.6121826171875,742.1259765625,698.3153076171875
1767330463.5555816,660.7886352539062,644.6804809570312,708.8475952148438,533.5164794921875
1767330463.5594878,709.2015991210938,708.051025390625,719.1143188476562,699.3773803710938
1767330463.563394,786.1136474609375,798.5045776367188,744.2501220703125,913.0317993164062
1767330463.5673003,751.9501953125,745.3121948242188,734.160400390625,798.239013671875
1767330463.5712066,672.8255004882812,653.796630859375,714.8660278320312,554.6694946289062
1767330463.5751128,690.3497314453125,686.7210083007812,721.4154663085938,625.0320434570312
1767330463.579019,777.0859985351562,787.1757202148438,747.701904296875,886.6569213867188
1767330463.5829253,781.5113525390625,777.2630004882812,746.1087646484375,876.3016357421875
1767330463.6680663,697.0762329101562,686.8095092773438,724.6902465820312,606.7112426757812
1767330463.6719725,677.4277954101562,676.01171875,715.3970336914062,570.8661499023438
1767330463.6758788,762.3939208984375,775.1388549804688,736.7271118164062,820.7196655273438
1767330463.679785,795.1412963867188,798.9470825195312,755.0479125976562,898.3397216796875
1767330463.6836913,715.1315307617188,702.7406616210938,725.3982543945312,676.188720703125
1767330463.6875975,670.3472900390625,664.2403564453125,706.9004516601562,535.1980590820312
1767330463.6522553,732.6558227539062,739.1167602539062,732.6558227539062,742.302978515625
1767330463.6561615,795.4953002929688,795.3182983398438,750.5341186523438,931.8836669921875
1767330463.6600678,750.3570556640625,736.9041137695312,735.3994750976562,759.561767578125
1767330463.663974,674.2415771484375,665.4794311523438,715.4855346679688,535.1095581054688
1767330463.6678803,704.9533081054688,710.3521728515625,723.2741088867188,661.1426391601562
1767330463.6717865,783.1044311523438,784.9630737304688,741.3294067382812,912.6777954101562
1767330463.6756928,764.7836303710938,766.9077758789062,740.7984008789062,831.8714599609375
1767330463.679599,681.0565795898438,689.9957275390625,719.73388671875,570.6006469726562
1767330463.6835053,681.941650390625,696.01416015625,721.0614624023438,590.5145874023438
1767330463.6874115,769.3859252929688,769.1204223632812,750.091552734375,852.9359741210938
1767330463.6913178,780.8917846679688,775.0503540039062,744.8696899414062,900.8179321289062
1767330463.695224,697.518798828125,698.8463745117188,726.7258911132812,634.5907592773438
1767330463.6991303,670.1702880859375,672.2059326171875,718.3177490234375,542.9866333007812
1767330463.7030365,743.4535522460938,742.5685424804688,731.2396850585938,794.167724609375
1767330463.6893919,790.9815063476562,787.4412231445312,746.6398315429688,927.8123779296875
1767330463.693298,732.478759765625,730.1776123046875,730.3546142578125,705.4843139648438
1767330463.6972044,675.65771484375,677.2507934570312,717.6097412109375,525.5509033203125
1767330463.7011106,726.017822265625,714.7775268554688,731.2396850585938,715.1315307617188
1767330463.7050169,798.416015625,788.060791015625,751.8616943359375,930.29052734375
1767330463.708923,759.6502685546875,764.1640625,740.267333984375,789.2113647460938
1767330463.7128294,677.6048583984375,695.2175903320312,725.8408203125,540.9509887695312
1767330463.7167356,698.0498046875,697.1647338867188,742.2144775390625,629.722900390625
1767330463.7206419,771.5101318359375,763.3674926757812,743.2765502929688,907.1018676757812
1767330463.724548,768.6779174804688,774.34228515625,734.7799682617188,866.5659790039062
1767330463.7284544,694.2440185546875,692.473876953125,721.76953125,596.4444580078125
1767330463.7323606,678.4013671875,663.7093505859375,715.3085327148438,581.0443725585938
1767330463.8105743,757.9686279296875,744.0731201171875,734.6029663085938,837.889892578125
1767330463.8144805,792.6631469726562,791.1585083007812,745.1351928710938,911.1731567382812
1767330463.8183868,726.19482421875,728.6730346679688,734.160400390625,666.8955688476562
1767330463.822293,677.6048583984375,666.010498046875,723.80517578125,546.349853515625
1767330463.8261993,729.6466064453125,729.2040405273438,731.94775390625,766.19970703125
1767330463.8301055,796.6459350585938,803.9034423828125,749.4719848632812,927.1043090820312
1767330463.8340118,747.1708374023438,755.1364135742188,734.4259033203125,750.1800537109375
1767330463.837918,655.3012084960938,667.692138671875,707.9625244140625,550.1556396484375
1767330463.796627,692.9164428710938,695.66015625,734.160400390625,642.9988403320312
1767330463.8005333,779.7412109375,781.2457885742188,748.4984130859375,889.6661376953125
1767330463.8044395,761.0663452148438,778.7676391601562,733.806396484375,820.8966674804688
1767330463.8083458,682.3841552734375,675.2151489257812,715.839599609375,558.5637817382812
1767330463.812252,682.3841552734375,663.4437866210938,717.875244140625,598.1260986328125
1767330463.8161583,761.7744140625,770.8020629882812,745.2236938476562,861.4325561523438
1767330463.8200645,778.1480712890625,807.9747314453125,749.8260498046875,877.0097045898438
1767330463.8239708,694.6865844726562,706.015380859375,721.1499633789062,618.0400390625
1767330463.827877,663.620849609375,656.0977783203125,710.7947387695312,546.0843505859375
1767330463.8317833,740.5328979492188,746.6398315429688,730.5316772460938,795.5838623046875
1767330463.8356895,787.7952880859375,816.7368774414062,744.2501220703125,910.2880859375
1767330463.8395958,728.7615356445312,731.0626831054688,735.7535400390625,684.4197998046875
1767330463.799134,666.7185668945312,640.3436279296875,712.8303833007812,538.9153442382812
1767330463.8030403,714.6005249023438,709.1130981445312,723.5396728515625,720.5304565429688
1767330463.8069465,790.1849365234375,806.027587890625,748.1444091796875,918.6077270507812
1767330463.8108528,753.4547729492188,757.7916259765625,735.5765380859375,785.4055786132812
1767330463.814759,668.8427124023438,668.22314453125,716.0166015625,549.2705688476562
1767330463.8186653,688.7566528320312,691.765869140625,721.8580322265625,635.4757690429688
1767330463.8225715,778.9446411132812,786.8217163085938,740.8869018554688,893.1178588867188
1767330463.8264778,779.2101440429688,778.3250732421875,739.2052612304688,863.5567626953125
1767330463.830384,690.3497314453125,681.1450805664062,719.0258178710938,595.3823852539062
1767330463.8342903,679.4634399414062,666.9840698242188,716.6361694335938,580.9558715820312
1767330463.8381965,764.7836303710938,775.3158569335938,743.7191162109375,839.0404663085938
1767330463.8421028,792.5746459960938,801.6907958984375,755.5789794921875,899.2247924804688
1767330463.9228926,709.90966796875,696.3681640625,718.05224609375,669.1967163085938
1767330463.9267988,665.3909301757812,666.9840698242188,706.1923828125,545.1992797851562
1767330463.930705,736.9926147460938,751.9501953125,730.3546142578125,754.9594116210938
1767330463.9346113,793.2826538085938,794.3447265625,740.09033203125,926.3077392578125
1767330463.9385176,737.2581176757812,737.1696166992188,728.1419677734375,736.5501098632812
1767330463.9424238,664.7714233398438,673.0910034179688,715.5740966796875,525.2853393554688
1767330463.94633,708.051025390625,717.4326782226562,725.3097534179688,670.3472900390625
1767330463.9502363,790.6275024414062,786.2021484375,745.0466918945312,916.1295166015625
1767330463.9541426,763.0134887695312,753.2777709960938,742.0374755859375,817.7989501953125
1767330463.9580488,678.8439331054688,673.2680053710938,717.521240234375,559.0947875976562
1767330463.9222612,689.8187255859375,698.5808715820312,719.9993896484375,595.64794921875
1767330463.9261675,780.8032836914062,779.7412109375,748.7639770507812,858.8659057617188
1767330463.9300737,786.4676513671875,774.9618530273438,739.1167602539062,893.64892578125
1767330463.93398,701.2360229492188,702.8291625976562,716.37060546875,627.1561889648438
1767330463.9378862,678.3128662109375,684.8623657226562,717.7867431640625,555.1119995117188
1767330463.9417925,749.6490478515625,746.020263671875,733.3638305664062,813.4620971679688
1767330463.9456987,791.3355102539062,787.4412231445312,743.5421142578125,929.759521484375
1767330463.949605,725.663818359375,726.4603271484375,730.7086791992188,701.5015869140625
1767330463.9535112,670.2587890625,668.8427124023438,721.8580322265625,538.0302734375
1767330463.9574175,725.5753173828125,711.2372436523438,735.0454711914062,734.6914672851562
1767330463.9613237,790.8930053710938,778.3250732421875,746.374267578125,935.9549560546875
1767330463.96523,752.7467651367188,754.162841796875,737.9661865234375,784.16650390625
1767330463.9691362,679.6405029296875,693.5360107421875,724.8672485351562,541.3049926757812
1767330463.9730425,708.3165283203125,708.3165283203125,733.8948974609375,639.4585571289062
1767330463.9754193,786.1136474609375,777.70556640625,740.9754028320312,919.4927368164062
1767330463.9793255,771.0675659179688,778.6791381835938,736.9926147460938,865.3268432617188
1767330463.9832318,688.4910888671875,698.1383056640625,725.0442504882812,586.2662353515625
1767330463.987138,679.906005859375,668.8427124023438,718.229248046875,591.1340942382812
1767330463.9910443,760.0927734375,744.9581909179688,740.0018310546875,855.2371215820312
1767330463.9949505,786.025146484375,790.6275024414062,752.2156982421875,903.0305786132812
1767330463.9988568,711.3257446289062,725.663818359375,727.7879638671875,643.0873413085938
1767330464.002763,670.435791015625,663.5323486328125,710.1751708984375,538.9153442382812
1767330464.0447612,739.4707641601562,723.982177734375,726.4603271484375,770.447998046875
1767330464.0486674,793.63671875,795.3182983398438,744.16162109375,924.0950927734375
1767330464.0525737,740.4443359375,755.0479125976562,737.9661865234375,725.8408203125
1767330464.05648,675.7462158203125,672.3829345703125,731.94775390625,512.1864013671875
1767330464.0603862,710.263671875,692.0313720703125,734.2489013671875,681.2335815429688
1767330464.0642924,779.3871459960938,784.0780029296875,739.1167602539062,926.3077392578125
1767330464.0681987,753.4547729492188,776.9974975585938,736.8156127929688,808.063232421875
1767330464.072105,672.3829345703125,671.0553588867188,715.4855346679688,559.8028564453125
1767330464.0760112,682.0301513671875,661.939208984375,715.7510986328125,619.8101806640625
1767330464.0799174,767.52734375,768.5894165039062,736.8156127929688,880.107421875
1767330464.0348434,776.8204956054688,799.566650390625,742.47998046875,875.505126953125
1767330464.0387497,692.473876953125,698.40380859375,722.4775390625,618.9251098632812
1767330464.042656,666.010498046875,657.9564208984375,718.7603149414062,566.17529296875
1767330464.0465622,743.7191162109375,743.0110473632812,734.4259033203125,814.9667358398438
1767330464.0504684,788.1492919921875,803.3723754882812,747.52490234375,914.8904418945312
1767330464.0543747,720.3533935546875,727.3453979492188,739.559326171875,679.4634399414062
1767330464.058281,658.221923828125,644.7689819335938,709.2901000976562,544.7567749023438
1767330464.0621872,715.5740966796875,709.732666015625,718.1407470703125,743.3650512695312
1767330464.0660934,790.8930053710938,805.4965209960938,746.9938354492188,930.9100952148438
1767330464.0699997,746.9053344726562,750.2685546875,735.9305419921875,776.9974975585938
1767330464.073906,665.5679931640625,656.4517822265625,715.1315307617188,545.2877807617188
1767330464.0778122,695.7486572265625,700.7050170898438,729.8236083984375,655.2127075195312
1767330464.0817184,778.8561401367188,799.8321533203125,752.7467651367188,904.004150390625
1767330464.0856247,766.4652099609375,771.2445678710938,745.1351928710938,847.714111328125
1767330464.0653853,681.0565795898438,676.7197875976562,719.0258178710938,584.4075927734375
1767330464.0692916,673.6220703125,677.693359375,713.98095703125,584.6731567382812
1767330464.0731978,763.2789916992188,773.811279296875,741.6834716796875,841.3416137695312
1767330464.077104,790.7160034179688,791.778076171875,755.844482421875,884.4442138671875
1767330464.0810103,702.2095947265625,694.8635864257812,726.1063232421875,646.18505859375
1767330464.0849166,658.7529907226562,659.6380615234375,710.440673828125,543.3406372070312
1767330464.0888228,733.2753295898438,751.9501953125,728.9385375976562,768.1468505859375
1767330464.092729,788.1492919921875,807.7977294921875,742.1259765625,923.2985229492188
1767330464.1935413,733.5408935546875,736.8156127929688,728.6730346679688,722.12353515625
1767330464.1974475,667.692138671875,665.3909301757812,714.6005249023438,525.4623413085938
1767330464.1798005,712.7418823242188,721.2384643554688,729.0270385742188,683.0922241210938
1767330464.1837068,790.1849365234375,792.30908203125,742.0374755859375,916.8375854492188
1767330464.187613,759.561767578125,754.0743408203125,732.9213256835938,804.8770141601562
1767330464.1915193,677.516357421875,673.97607421875,715.9281005859375,542.8981323242188
1767330464.1954255,689.1991577148438,695.3945922851562,718.9373168945312,612.8181762695312
1767330464.1993318,767.6158447265625,779.564208984375,728.4959716796875,905.5972900390625
1767330464.203238,784.16650390625,785.1400756835938,746.4627685546875,864.0877685546875
1767330464.2071443,701.1475219726562,696.8107299804688,733.5408935546875,584.319091796875
1767330464.2110505,671.2323608398438,679.1094360351562,712.122314453125,564.2281494140625
1767330464.2149568,750.0030517578125,751.9501953125,731.6822509765625,820.0115966796875
1767330464.218863,784.5205688476562,781.953857421875,738.6742553710938,918.4306640625
1767330464.2227693,712.7418823242188,717.3441772460938,718.9373168945312,678.4898681640625
1767330464.2266755,659.1069946289062,672.3829345703125,713.5384521484375,529.6221923828125
1767330464.2305818,720.6189575195312,725.1327514648438,731.59375,742.3914794921875
1767330464.1996133,785.4055786132812,787.1757202148438,741.948974609375,931.4411010742188
1767330464.2035196,738.7627563476562,747.1708374023438,727.87646484375,762.5709838867188
1767330464.2074258,668.400146484375,685.3048706054688,719.1143188476562,535.7291259765625
1767330464.211332,705.0418090820312,709.9981689453125,738.231689453125,649.1057739257812
1767330464.2152383,780.5377807617188,771.5986328125,741.3294067382812,916.1295166015625
1767330464.2191446,762.5709838867188,767.3502807617188,731.3281860351562,848.2451171875
1767330464.2230508,681.3220825195312,692.6509399414062,721.946533203125,571.2201538085938
1767330464.226957,679.6405029296875,669.6392822265625,718.40625,591.753662109375
1767330464.2308633,765.7572021484375,749.560546875,735.1339721679688,862.49462890625
1767330464.2347696,785.9366455078125,792.0435791015625,743.0995483398438,902.4110107421875
1767330464.2386758,709.0245971679688,723.5396728515625,725.663818359375,640.9631958007812
1767330464.242582,672.7369995117188,668.5772094726562,719.73388671875,550.3326416015625
1767330464.2330914,741.6834716796875,733.7178955078125,735.5765380859375,790.450439453125
1767330464.2369976,793.3711547851562,795.849365234375,748.9409790039062,932.5032348632812
1767330464.2409039,736.2845458984375,755.4019165039062,739.559326171875,719.0258178710938
1767330464.24481,677.1622924804688,684.2427978515625,732.0362548828125,525.5509033203125
1767330464.3003886,715.7510986328125,703.1831665039062,726.9913940429688,713.4498901367188
1767330464.3042948,786.7332153320312,786.8217163085938,736.5501098632812,935.512451171875
1767330464.308201,760.9778442382812,770.6250610351562,737.7891845703125,798.416015625
1767330464.3121073,680.7910766601562,669.9932861328125,713.8924560546875,558.8292846679688
1767330464.3160136,698.6693725585938,677.0737915039062,719.1143188476562,641.4942016601562
1767330464.3199198,777.6170654296875,773.1917114257812,743.630615234375,897.543212890625
1767330464.2725444,781.599853515625,785.2285766601562,749.0294799804688,873.4694213867188
1767330464.2764506,704.9533081054688,690.1727294921875,730.7971801757812,615.3848266601562
1767330464.280357,685.658935546875,667.6036376953125,723.0971069335938,583.611083984375
1767330464.2842631,764.2525634765625,761.3318481445312,737.9661865234375,838.3323974609375
1767330464.2881694,799.2125854492188,816.7368774414062,745.3121948242188,920.1123046875
1767330464.2920756,729.2925415039062,733.4523315429688,737.6121826171875,667.6036376953125
1767330464.295982,677.2507934570312,652.7345581054688,717.3441772460938,547.9429931640625
1767330464.2998881,740.1788330078125,726.017822265625,725.0442504882812,766.8192749023438
1767330464.3037944,801.8677978515625,816.02880859375,745.4891967773438,929.2284545898438
1767330464.3077006,748.8524780273438,750.9766235351562,732.9213256835938,758.3226318359375
1767330464.311607,674.153076171875,658.9299926757812,717.7867431640625,544.4912109375
1767330464.3155131,704.333740234375,704.0682373046875,725.1327514648438,666.4530029296875
1767330464.3194194,785.7596435546875,796.9999389648438,741.8604736328125,905.4202270507812
1767330464.3233256,767.3502807617188,766.6422729492188,734.4259033203125,832.0484619140625
1767330464.3197393,677.9588623046875,670.1702880859375,714.8660278320312,570.3350830078125
1767330464.3236456,673.5335693359375,676.6312866210938,714.2464599609375,590.9570922851562
1767330464.3275518,759.2962036132812,786.4676513671875,736.9041137695312,850.7233276367188
1767330464.331458,788.3262939453125,803.3723754882812,751.1536254882812,873.3809204101562
1767330464.3353643,703.2716674804688,693.0049438476562,721.2384643554688,634.0596923828125
1767330464.3392706,657.3368530273438,654.0621337890625,707.7855224609375,549.1820678710938
1767330464.3431768,737.70068359375,751.0651245117188,732.124755859375,780.8032836914062
1767330464.347083,792.0435791015625,802.4873046875,743.0995483398438,925.2456665039062
1767330464.3509893,722.8316040039062,716.6361694335938,726.7258911132812,709.6441650390625
1767330464.3548956,655.2127075195312,652.8230590820312,711.0602416992188,525.639404296875
1767330464.3588018,709.0245971679688,725.3097534179688,717.6982421875,700.8820190429688
1767330464.362708,789.2998657226562,788.5918579101562,739.0282592773438,927.0158081054688
1767330464.4331408,755.66748046875,743.1880493164062,734.33740234375,798.06201171875
1767330464.437047,675.1266479492188,670.1702880859375,714.9545288085938,552.6338500976562
1767330464.4409533,693.8900146484375,705.4843139648438,728.1419677734375,633.1746215820312
1767330464.4448595,780.272216796875,790.1849365234375,753.0122680664062,880.9924926757812
1767330464.4487658,770.3594970703125,767.3502807617188,737.9661865234375,864.0877685546875
1767330464.452672,683.0922241210938,686.012939453125,710.9717407226562,602.5514526367188
1767330464.412143,672.29443359375,682.5612182617188,712.476318359375,567.679931640625
1767330464.4160492,751.5076904296875,750.6226196289062,736.6386108398438,834.7036743164062
1767330464.4199555,788.060791015625,770.6250610351562,746.6398315429688,916.9260864257812
1767330464.4238617,717.9637451171875,705.661376953125,725.5753173828125,670.2587890625
1767330464.427768,669.90478515625,678.7554321289062,714.7775268554688,534.7555541992188
1767330464.4316742,735.1339721679688,737.3466186523438,733.0098266601562,756.7295532226562
1767330464.4355805,797.2654418945312,784.7860717773438,742.8340454101562,934.2733154296875
1767330464.4394867,737.4351196289062,738.3201904296875,728.6730346679688,747.87890625
1767330464.443393,660.7886352539062,679.1979370117188,717.6097412109375,530.24169921875
1767330464.4472992,705.5728759765625,708.3165283203125,736.6386108398438,662.3817138671875
1767330464.4512055,778.41357421875,769.56298828125,743.0110473632812,922.324951171875
1767330464.4551117,750.5341186523438,751.8616943359375,730.443115234375,832.9335327148438
1767330464.4069223,667.2495727539062,686.9865112304688,715.2200317382812,563.0775756835938
1767330464.4108286,676.36572265625,687.1635131835938,719.9993896484375,607.1537475585938
1767330464.4147348,767.52734375,760.5353393554688,740.5328979492188,874.5315551757812
1767330464.418641,780.44921875,782.48486328125,736.8156127929688,886.391357421875
1767330464.4225473,699.554443359375,710.3521728515625,721.0614624023438,617.4204711914062
1767330464.4264536,670.6128540039062,663.1782836914062,716.6361694335938,551.92578125
1767330464.4303598,746.197265625,731.3281860351562,731.5052490234375,802.13330078125
1767330464.434266,790.0079345703125,790.7160034179688,740.9754028320312,922.5020141601562
1767330464.4381723,727.1683959960938,747.0823364257812,729.1155395507812,698.0498046875
1767330464.4420786,674.0645751953125,677.6048583984375,722.2120361328125,519.4439086914062
1767330464.4459848,722.0350341796875,704.4222412109375,726.19482421875,723.8936767578125
1767330464.449891,794.5217895507812,788.3262939453125,739.2937622070312,939.8492431640625
1767330464.4537973,760.7123413085938,765.845703125,734.2489013671875,785.7596435546875
1767330464.4577036,680.5255737304688,670.6128540039062,712.5648803710938,552.8108520507812
1767330464.5523152,699.7314453125,682.2071533203125,719.73388671875,648.220703125
1767330464.5562215,786.6447143554688,778.236572265625,742.9225463867188,899.4902954101562
1767330464.5601277,784.9630737304688,783.635498046875,742.0374755859375,852.9359741210938
1767330464.564034,694.6865844726562,687.9600830078125,720.264892578125,589.89501953125
1767330464.5679402,680.3485107421875,669.4622192382812,710.7062377929688,580.4248046875
1767330464.5718465,763.2789916992188,763.2789916992188,736.4615478515625,834.172607421875
1767330464.5757527,795.4067993164062,811.1609497070312,745.7547607421875,900.6409301757812
1767330464.579659,710.1751708984375,725.5753173828125,708.8475952148438,680.7025756835938
1767330464.5835652,668.4886474609375,670.6128540039062,712.2108154296875,537.3222045898438
1767330464.5874715,746.4627685546875,740.0018310546875,746.2857666015625,734.160400390625
1767330464.5393581,798.1505126953125,805.673583984375,744.5156860351562,926.8388061523438
1767330464.5432644,739.8248291015625,741.5064697265625,733.1868286132812,744.0731201171875
1767330464.5471706,667.0725708007812,651.4954223632812,717.9637451171875,535.1095581054688
1767330464.551077,705.9268798828125,704.9533081054688,722.7431030273438,675.9232177734375
1767330464.5549831,785.84814453125,805.8505859375,746.1087646484375,906.4822998046875
1767330464.5588894,763.1904907226562,768.2353515625,738.1431884765625,814.9667358398438
1767330464.5627956,681.1450805664062,663.1782836914062,715.1315307617188,562.4580078125
1767330464.566702,687.4290161132812,675.9232177734375,715.3970336914062,603.3479614257812
1767330464.5706081,770.8020629882812,789.5654296875,738.40869140625,861.0785522460938
1767330464.5745144,788.5033569335938,800.9827270507812,752.127197265625,861.3440551757812
1767330464.5784206,706.2808837890625,678.7554321289062,720.8844604492188,618.9251098632812
1767330464.582327,676.1002197265625,654.8587036132812,711.9453125,562.9005737304688
1767330464.5862331,753.3662719726562,767.2617797851562,735.0454711914062,802.0447998046875
1767330464.5901394,800.1861572265625,812.2230224609375,745.1351928710938,926.3077392578125
1767330464.5755172,730.0006103515625,730.8856811523438,730.26611328125,702.9176635742188
1767330464.5794234,667.7806396484375,666.2760009765625,709.732666015625,531.5693359375
1767330464.5833297,728.23046875,732.478759765625,727.4338989257812,721.5040283203125
1767330464.587236,800.7172241210938,799.4780883789062,747.701904296875,929.3169555664062
1767330464.5911422,757.1720581054688,749.560546875,733.806396484375,776.5549926757812
1767330464.5950484,673.3565063476562,669.1967163085938,712.5648803710938,536.7911987304688
1767330464.5989547,697.3417358398438,705.1303100585938,718.9373168945312,636.6264038085938
1767330464.602861,786.2021484375,788.5033569335938,747.7904052734375,884.5327758789062
1767330464.659278,773.7227783203125,763.4559936523438,736.196044921875,853.2014770507812
1767330464.6631842,683.7117919921875,673.7105712890625,708.4935302734375,595.2938842773438
1767330464.6670904,675.3036499023438,670.5243530273438,714.9545288085938,575.1144409179688
1767330464.6709967,759.4732055664062,765.0491333007812,740.09033203125,846.4749755859375
1767330464.674903,785.7596435546875,798.06201171875,748.7639770507812,915.2444458007812
1767330464.6788092,702.298095703125,711.0602416992188,726.7258911132812,653.7081298828125
1767330464.6827154,660.7886352539062,669.8162841796875,716.9901733398438,535.9061279296875
1767330464.6866217,731.8592529296875,737.4351196289062,729.0270385742188,770.9790649414062
1767330464.690528,784.343505859375,778.5021362304688,742.2144775390625,926.1307373046875
1767330464.6944342,725.4867553710938,718.8488159179688,733.2753295898438,725.2212524414062
1767330464.6983404,656.0977783203125,666.5415649414062,715.5740966796875,520.240478515625
1767330464.7022467,707.2544555664062,712.6533813476562,733.4523315429688,664.15185546875
1767330464.706153,784.5205688476562,776.1124267578125,744.2501220703125,914.9789428710938
1767330464.7100592,751.4191284179688,755.4019165039062,730.9741821289062,812.134521484375
1767330464.6617506,674.2415771484375,689.1106567382812,719.9993896484375,547.9429931640625
1767330464.6656568,681.7646484375,686.9865112304688,718.40625,609.0123901367188
1767330464.669563,762.0399169921875,756.198486328125,735.5765380859375,878.248779296875
1767330464.6734693,771.775634765625,769.739990234375,740.9754028320312,874.2659912109375
1767330464.6773756,688.402587890625,702.9176635742188,720.1763916015625,602.6399536132812
1767330464.6812818,659.6380615234375,671.4093627929688,711.9453125,552.102783203125
1767330464.685188,736.7271118164062,742.0374755859375,734.160400390625,810.5414428710938
1767330464.6890943,781.3342895507812,793.1056518554688,744.6041870117188,918.9617309570312
1767330464.6930006,715.839599609375,739.2052612304688,726.371826171875,682.8267211914062
1767330464.6969068,667.9576416015625,680.7910766601562,719.4683227539062,513.4254760742188
1767330464.700813,720.1763916015625,716.4591064453125,726.6373901367188,732.2132568359375
1767330464.7047193,780.7147827148438,786.2021484375,739.4707641601562,935.1583862304688
1767330464.7086256,740.3558349609375,753.2777709960938,733.806396484375,757.3490600585938
1767330464.7125318,666.010498046875,663.974853515625,712.7418823242188,535.1980590820312
1767330464.7258065,694.4210205078125,683.3577270507812,719.0258178710938,651.4069213867188
1767330464.7297127,777.3515014648438,784.16650390625,740.8869018554688,899.932861328125
1767330464.733619,774.4307861328125,795.0527954101562,744.8696899414062,840.7221069335938
1767330464.7375252,690.9692993164062,692.296875,728.5845336914062,580.9558715820312
1767330464.776837,680.8795776367188,661.8507080078125,715.1315307617188,585.1156616210938
1767330464.7807434,765.4916381835938,757.703125,732.2132568359375,849.57275390625
1767330464.7846496,789.2998657226562,807.6207275390625,750.091552734375,899.755859375
1767330464.7885559,714.9545288085938,719.9993896484375,739.3822631835938,631.1389770507812
1767330464.792462,671.3208618164062,652.9115600585938,715.5740966796875,541.8360595703125
1767330464.7963684,734.8684692382812,734.6029663085938,719.73388671875,780.8032836914062
1767330464.8002746,793.4596557617188,812.6655883789062,739.4707641601562,918.4306640625
1767330464.8041809,739.0282592773438,744.2501220703125,732.124755859375,726.19482421875
1767330464.808087,666.9840698242188,655.3012084960938,714.157958984375,535.1095581054688
1767330464.8119934,700.9705200195312,708.6705932617188,723.1856079101562,685.658935546875
1767330464.8158996,774.2537841796875,806.1160888671875,749.2064819335938,907.1018676757812
1767330464.8198059,750.8881225585938,768.9434204101562,745.4006958007812,800.274658203125
1767330464.823712,674.153076171875,673.0910034179688,722.4775390625,554.4039306640625
1767330464.8276184,685.4818725585938,682.8267211914062,716.8131713867188,616.0928955078125
1767330464.7872171,773.811279296875,783.5469970703125,738.1431884765625,876.4786376953125
1767330464.7911234,787.6182861328125,795.2297973632812,758.4996337890625,856.9187622070312
1767330464.7950296,702.8291625976562,684.8623657226562,728.053466796875,612.287109375
1767330464.798936,672.6484985351562,658.39892578125,707.6085205078125,574.494873046875
1767330464.8028421,754.7824096679688,762.2169189453125,736.1075439453125,818.5955200195312
1767330464.8067484,798.7700805664062,802.310302734375,746.374267578125,926.21923828125
1767330464.8106546,724.8672485351562,713.0073852539062,719.910888671875,692.2083740234375
1767330464.814561,665.656494140625,653.5311279296875,703.2716674804688,536.171630859375
1767330464.8184671,725.2212524414062,728.1419677734375,726.7258911132812,738.1431884765625
1767330464.8223734,795.4067993164062,798.9470825195312,750.1800537109375,937.1940307617188
1767330464.8262796,748.5869750976562,742.3914794921875,731.0626831054688,773.1032104492188
1767330464.830186,674.330078125,663.5323486328125,709.3786010742188,545.1992797851562
1767330464.8387198,708.9360961914062,710.6177368164062,725.9293212890625,662.7357788085938
1767330464.842626,798.1505126953125,800.5402221679688,761.8629150390625,899.4902954101562
1767330464.8465323,779.918212890625,759.561767578125,744.5156860351562,843.4657592773438
1767330464.8504386,686.8980102539062,668.400146484375,709.3786010742188,586.354736328125
1767330464.8543448,680.6140747070312,678.8439331054688,717.2556762695312,586.5317993164062
1767330464.858251,765.7572021484375,762.9249877929688,739.3822631835938,858.3348388671875
1767330464.9660752,785.4940795898438,788.23779296875,741.5064697265625,905.5087890625
1767330464.9699814,702.9176635742188,712.29931640625,725.9293212890625,642.8218383789062
1767330464.9738877,666.7185668945312,672.5599975585938,716.0166015625,537.9417724609375
1767330464.977794,735.7535400390625,738.8512573242188,729.735107421875,777.2630004882812
1767330464.929482,785.2285766601562,789.4768676757812,746.9938354492188,928.3433837890625
1767330464.9333882,728.1419677734375,727.87646484375,732.124755859375,715.1315307617188
1767330464.9372945,662.0277099609375,664.9484252929688,717.0786743164062,525.1083374023438
1767330464.9412007,703.802734375,713.626953125,724.336181640625,714.7775268554688
1767330464.945107,776.5549926757812,788.6803588867188,733.5408935546875,938.3446044921875
1767330464.9490132,756.9950561523438,767.88134765625,748.23291015625,770.7135620117188
1767330464.9529195,679.0209350585938,683.977294921875,730.26611328125,519.9749755859375
1767330464.9568257,683.5347900390625,680.5255737304688,716.5476684570312,622.5538940429688
1767330464.960732,769.3859252929688,760.8893432617188,745.1351928710938,883.2936401367188
1767330464.9646382,773.8997802734375,774.5193481445312,744.9581909179688,862.4061279296875
1767330464.9685445,688.1370849609375,701.6785888671875,721.2384643554688,591.6651611328125
1767330464.9724507,672.0289306640625,672.117431640625,719.1143188476562,563.962646484375
1767330464.976357,755.844482421875,743.5421142578125,738.40869140625,833.3760375976562
1767330464.9802632,793.63671875,790.7160034179688,745.4006958007812,922.5020141601562
1767330464.931929,723.4511108398438,731.6822509765625,728.3189697265625,676.7197875976562
1767330464.9358354,669.2852172851562,673.1795043945312,731.6822509765625,519.0014038085938
1767330464.9397416,722.12353515625,710.6177368164062,738.0546875,742.9225463867188
1767330464.9436479,782.7504272460938,781.4227905273438,738.3201904296875,937.548095703125
1767330464.947554,735.5765380859375,751.9501953125,736.4615478515625,746.197265625
1767330464.9514604,659.2839965820312,664.8599243164062,722.0350341796875,528.383056640625
1767330464.9553666,688.9336547851562,687.517578125,731.3281860351562,661.4966430664062
1767330464.9592729,767.7928466796875,782.9274291992188,753.2777709960938,903.2075805664062
1767330464.963179,750.0030517578125,781.0687866210938,752.7467651367188,819.1265258789062
1767330464.9670854,661.4966430664062,682.2071533203125,730.7971801757812,555.9970703125
1767330464.9709916,660.1690673828125,666.010498046875,728.407470703125,577.5926513671875
1767330464.9748979,741.8604736328125,759.3847045898438,755.5789794921875,834.5266723632812
1767330464.978804,760.7123413085938,794.167724609375,758.9421997070312,859.573974609375
1767330464.9827104,686.9865112304688,712.6533813476562,746.1087646484375,589.4524536132812
1767330465.0549471,641.6712646484375,651.1414184570312,733.0098266601562,518.204833984375
1767330465.0588534,702.8291625976562,731.1511840820312,739.913330078125,761.4203491210938
1767330465.0627596,756.6410522460938,813.3735961914062,756.021484375,885.0637817382812
1767330465.066666,703.7142333984375,744.4271240234375,752.5697631835938,666.4530029296875
1767330465.0705721,639.1045532226562,656.0977783203125,736.6386108398438,492.7149963378906
1767330465.0744784,685.3933715820312,705.4843139648438,734.160400390625,689.8187255859375
1767330465.0783846,765.0491333007812,796.1148681640625,756.7295532226562,899.2247924804688
1767330465.082291,731.94775390625,750.8881225585938,744.6041870117188,767.3502807617188
1767330465.0343027,654.8587036132812,656.00927734375,719.910888671875,530.7727661132812
1767330465.038209,677.1622924804688,682.8267211914062,726.4603271484375,615.4733276367188
1767330465.0421152,763.1904907226562,788.23779296875,748.9409790039062,877.3637084960938
1767330465.0460215,767.6158447265625,789.742431640625,755.2249145507812,838.7749633789062
1767330465.0499277,681.7646484375,675.1266479492188,723.628173828125,588.8329467773438
1767330465.053834,664.4173583984375,654.8587036132812,716.5476684570312,578.38916015625
1767330465.0577402,745.666259765625,757.2605590820312,741.0639038085938,824.17138671875
1767330465.0616465,780.8917846679688,789.6539306640625,745.666259765625,907.6329345703125
1767330465.0655527,706.015380859375,694.5980834960938,722.5661010742188,669.9932861328125
1767330465.069459,658.8414916992188,646.5391235351562,705.661376953125,537.2337036132812
1767330465.0733652,732.5673217773438,740.8869018554688,728.4959716796875,759.4732055664062
1767330465.0772715,798.6815795898438,805.1425170898438,747.701904296875,944.7171020507812
1767330465.0811777,744.2501220703125,729.1155395507812,733.2753295898438,765.4916381835938
1767330465.085084,672.29443359375,652.114990234375,712.5648803710938,550.3326416015625
1767330465.0775313,709.732666015625,707.7855224609375,720.5304565429688,682.2071533203125
1767330465.0814376,795.67236328125,795.5838623046875,753.6318359375,908.6065063476562
1767330465.0853438,778.5906372070312,754.6054077148438,743.0995483398438,838.4208984375
1767330465.08925,692.6509399414062,671.2323608398438,706.7234497070312,590.1605224609375
1767330465.0931563,697.4302368164062,692.5624389648438,715.0430297851562,608.1273193359375
1767330465.0970626,785.4055786132812,777.9710693359375,739.6478271484375,881.0809936523438
1767330465.1009688,800.274658203125,785.0515747070312,739.3822631835938,908.6065063476562
1767330465.104875,719.9993896484375,696.7222290039062,719.8223876953125,641.582763671875
1767330465.1087813,691.94287109375,672.5599975585938,713.626953125,559.4487915039062
1767330465.1126876,767.52734375,749.2064819335938,732.8328247070312,810.0103759765625
1767330465.1754189,816.205810546875,786.2906494140625,743.8961181640625,941.5308837890625
1767330465.179325,746.197265625,720.3533935546875,722.4775390625,714.7775268554688
1767330465.1832314,678.8439331054688,673.4450073242188,705.1303100585938,537.67626953125
1767330465.1871376,734.8684692382812,740.7098999023438,735.4879760742188,710.086669921875
1767330465.1910439,799.0355834960938,793.9022216796875,746.4627685546875,932.6802368164062
1767330465.19495,750.0030517578125,744.16162109375,724.336181640625,803.9034423828125
1767330465.1988564,673.1795043945312,674.0645751953125,707.9625244140625,551.0407104492188
1767330465.2027626,696.191162109375,687.7830810546875,711.3257446289062,647.6011962890625
1767330465.1670647,780.5377807617188,765.0491333007812,734.9569702148438,911.8812255859375
1767330465.170971,783.2814331054688,769.3859252929688,740.4443359375,870.0177001953125
1767330465.1748772,703.2716674804688,697.2532348632812,718.6718139648438,597.9490966796875
1767330465.1787834,691.765869140625,681.4990844726562,708.6705932617188,586.6203002929688
1767330465.1826897,768.5894165039062,755.844482421875,727.0798950195312,850.6348266601562
1767330465.186596,796.8229370117188,795.1412963867188,740.267333984375,917.0145874023438
1767330465.1905022,724.6902465820312,728.5845336914062,724.2476806640625,670.5243530273438
1767330465.1944084,680.260009765625,674.9496459960938,718.5833129882812,533.8704833984375
1767330465.1983147,740.7984008789062,720.6189575195312,726.017822265625,768.2353515625
1767330465.202221,798.8585815429688,784.4320068359375,730.5316772460938,952.32861328125
1767330465.2061272,751.8616943359375,747.7904052734375,725.5753173828125,750.5341186523438
1767330465.2100334,685.7474365234375,666.7185668945312,714.6005249023438,548.8280639648438
1767330465.2139397,723.80517578125,696.01416015625,725.3097534179688,699.6429443359375
1767330465.217846,799.920654296875,786.1136474609375,742.2144775390625,933.0342407226562
1767330465.1849742,773.7227783203125,777.1744995117188,737.2581176757812,827.711669921875
1767330465.1888804,692.3853759765625,677.6048583984375,713.803955078125,572.459228515625
1767330465.1927867,696.4566650390625,657.867919921875,710.263671875,619.2791137695312
1767330465.196693,772.7492065429688,757.526123046875,730.0006103515625,876.9212036132812
1767330465.2005992,784.4320068359375,799.3895874023438,736.01904296875,883.5592041015625
1767330465.2045054,712.122314453125,720.8844604492188,732.3017578125,607.5078125
1767330465.2084117,684.0657958984375,660.257568359375,719.556884765625,555.9085693359375
1767330465.212318,752.9237670898438,733.7178955078125,725.5753173828125,816.4713134765625
1767330465.2162242,795.67236328125,808.9483032226562,743.984619140625,917.72265625
1767330465.2201304,725.4867553710938,730.8856811523438,726.6373901367188,694.5980834960938
1767330465.2895103,665.3024291992188,644.7689819335938,707.9625244140625,534.4014892578125
1767330465.2934165,724.6902465820312,708.3165283203125,721.4154663085938,724.336181640625
1767330465.2973228,792.5746459960938,803.81494140625,740.7098999023438,923.82958984375
1767330465.301229,751.2421264648438,756.9065551757812,731.2396850585938,776.7319946289062
1767330465.3051353,670.8783569335938,653.2655639648438,710.7947387695312,545.641845703125
1767330465.3090415,690.7922973632812,684.154296875,717.875244140625,642.7333374023438
1767330465.3129478,778.7676391601562,795.849365234375,743.984619140625,896.5696411132812
1767330465.316854,771.5101318359375,793.7252197265625,735.3109741210938,865.0613403320312
1767330465.3207603,684.5968627929688,684.9508666992188,702.6521606445312,610.6940307617188
1767330465.3246665,678.8439331054688,674.7726440429688,713.5384521484375,580.4248046875
1767330465.2767684,774.7848510742188,773.7227783203125,753.5433349609375,808.8598022460938
1767330465.2806747,802.0447998046875,787.52978515625,748.6754760742188,896.4810791015625
1767330465.284581,719.2913208007812,700.7050170898438,721.2384643554688,663.2667846679688
1767330465.2884872,674.2415771484375,658.4874267578125,707.0774536132812,542.1015625
1767330465.2923934,743.7191162109375,736.4615478515625,725.2212524414062,766.9077758789062
1767330465.2962997,803.0183715820312,804.2574462890625,747.3478393554688,928.8744506835938
1767330465.300206,746.197265625,737.70068359375,733.1868286132812,743.2765502929688
1767330465.3041122,677.7818603515625,659.2839965820312,716.6361694335938,543.1636352539062
1767330465.3080184,718.5833129882812,720.6189575195312,722.300537109375,694.9520874023438
1767330465.3119247,800.1861572265625,813.7276611328125,747.9674072265625,910.8191528320312
1767330465.315831,771.5101318359375,763.0134887695312,736.1075439453125,815.3207397460938
1767330465.3197372,681.2335815429688,667.51513671875,704.8648071289062,578.6547241210938
1767330465.3236434,687.87158203125,689.9957275390625,711.9453125,616.6239624023438
1767330465.3275497,771.6871337890625,777.3515014648438,735.842041015625,881.3464965820312
1767330465.3553448,781.4227905273438,778.6791381835938,739.6478271484375,888.7810668945312
1767330465.359251,696.191162109375,692.296875,719.2913208007812,617.0664672851562
1767330465.3631573,669.9932861328125,671.763427734375,713.98095703125,552.9878540039062
1767330465.3670635,748.1444091796875,753.5433349609375,740.0018310546875,811.0724487304688
1767330465.3709698,783.3699340820312,786.379150390625,749.8260498046875,922.8560180664062
1767330465.374876,710.086669921875,714.6890258789062,726.8143920898438,687.6060791015625
1767330465.3787823,654.0621337890625,669.2852172851562,715.3085327148438,531.6578369140625
1767330465.3826885,716.193603515625,735.3109741210938,740.09033203125,717.0786743164062
1767330465.4329019,781.953857421875,785.9366455078125,747.3478393554688,922.2364501953125
1767330465.436808,733.62939453125,736.2845458984375,725.4867553710938,776.2894287109375
1767330465.4407144,661.4081420898438,672.6484985351562,716.37060546875,532.8084106445312
1767330465.4446206,693.0934448242188,698.0498046875,724.5132446289062,649.4597778320312
1767330465.4119945,777.7940673828125,771.5986328125,740.6213989257812,906.6593627929688
1767330465.4159007,767.9698486328125,772.7492065429688,740.9754028320312,844.7048950195312
1767330465.419807,688.7566528320312,700.8820190429688,724.9557495117188,576.7075805664062
1767330465.4237132,686.7210083007812,682.295654296875,718.6718139648438,582.46044921875
1767330465.4276195,771.4215698242188,751.8616943359375,731.94775390625,852.5819702148438
1767330465.4315257,797.6195068359375,783.4584350585938,741.948974609375,900.5524291992188
1767330465.435432,719.3798217773438,717.6097412109375,725.663818359375,645.1229858398438
1767330465.4393382,682.0301513671875,678.3128662109375,722.300537109375,529.4451293945312
1767330465.4432445,744.7811889648438,730.3546142578125,732.2132568359375,770.1824951171875
1767330465.4471507,798.9470825195312,790.1849365234375,739.6478271484375,942.4158935546875
1767330465.399378,744.2501220703125,751.6846923828125,731.94775390625,729.2040405273438
1767330465.4032843,676.8082885742188,672.6484985351562,712.122314453125,534.7555541992188
1767330465.4071906,719.8223876953125,694.8635864257812,719.556884765625,700.3509521484375
1767330465.4110968,790.1849365234375,780.8032836914062,737.523681640625,922.14794921875
1767330465.415003,766.4652099609375,774.2537841796875,736.8156127929688,803.0183715820312
1767330465.4189093,689.9957275390625,689.55322265625,720.6189575195312,558.209716796875
1767330465.4228156,696.1026611328125,683.3577270507812,716.9016723632812,629.0148315429688
1767330465.4267218,775.4928588867188,770.093994140625,737.7891845703125,888.1614990234375
1767330465.430628,780.9802856445312,793.7252197265625,740.4443359375,874.9740600585938
1767330465.4345343,702.47509765625,714.3349609375,728.5845336914062,597.7720947265625
1767330465.4384406,677.9588623046875,662.6472778320312,715.3085327148438,562.5465698242188
1767330465.4423468,748.6754760742188,736.01904296875,721.1499633789062,829.1277465820312
1767330465.446253,787.1757202148438,803.0183715820312,739.1167602539062,911.7042236328125
1767330465.4501593,722.6546020507812,733.62939453125,728.407470703125,678.8439331054688
1767330465.4757926,666.0989990234375,654.2391357421875,712.9188842773438,535.5521240234375
1767330465.479699,722.9201049804688,716.2821044921875,724.0706787109375,737.70068359375
1767330465.4836051,793.5482177734375,806.7356567382812,743.2765502929688,921.2628784179688
1767330465.4875114,750.1800537109375,753.3662719726562,737.9661865234375,757.9686279296875
1767330465.529057,674.5956420898438,656.6288452148438,715.2200317382812,537.5877685546875
1767330465.5329633,704.15673828125,691.2348022460938,716.5476684570312,651.3184204101562
1767330465.5368695,786.025146484375,799.3895874023438,734.4259033203125,899.4902954101562
1767330465.5407758,779.6527099609375,798.239013671875,744.0731201171875,823.4633178710938
1767330465.544682,696.8107299804688,680.3485107421875,722.8316040039062,573.8753662109375
1767330465.5485883,684.5083618164062,664.0633544921875,708.1395263671875,603.8790283203125
1767330465.5524945,769.6514892578125,767.3502807617188,738.1431884765625,857.8038330078125
1767330465.5564008,795.849365234375,791.8665771484375,751.5076904296875,901.2604370117188
1767330465.560307,713.7154541015625,697.872802734375,723.2741088867188,649.4597778320312
1767330465.5642133,673.97607421875,657.513916015625,709.5556640625,553.2533569335938
1767330465.5681195,743.1880493164062,751.8616943359375,729.6466064453125,784.5205688476562
1767330465.5720258,796.7344360351562,813.7276611328125,746.7283325195312,930.467529296875
1767330465.575932,736.7271118164062,736.9041137695312,732.3017578125,727.87646484375
1767330465.5798383,669.9932861328125,663.5323486328125,715.2200317382812,536.8796997070312
1767330465.531895,716.8131713867188,719.1143188476562,726.9913940429688,705.661376953125
1767330465.5358012,796.5574340820312,807.9747314453125,758.9421997070312,915.5985107421875
1767330465.5397074,763.3674926757812,759.561767578125,749.91455078125,799.6551513671875
1767330465.5436137,679.2864379882812,665.1254272460938,711.5028076171875,570.7776489257812
1767330465.54752,694.6865844726562,697.69580078125,717.0786743164062,629.8114013671875
1767330465.5514262,776.5549926757812,780.5377807617188,742.6570434570312,889.4890747070312
1767330465.5553324,777.0859985351562,766.7307739257812,741.2409057617188,875.1510620117188
1767330465.5592387,691.0578002929688,677.0737915039062,721.5040283203125,604.4100341796875
1767330465.563145,668.3116455078125,669.4622192382812,719.556884765625,561.8385009765625
1767330465.5670512,753.98583984375,766.9962768554688,739.2937622070312,822.48974609375
1767330465.5709574,791.2470092773438,794.9642944335938,746.2857666015625,916.7490844726562
1767330465.5748637,714.2464599609375,711.9453125,729.0270385742188,673.6220703125
1767330465.57877,660.7886352539062,674.5956420898438,710.7062377929688,530.8612670898438
1767330465.5826762,726.1063232421875,750.3570556640625,734.6029663085938,727.5224609375
1767330465.5808578,790.450439453125,793.2826538085938,754.0743408203125,919.6697998046875
1767330465.584764,738.3201904296875,735.2224731445312,728.4959716796875,764.341064453125
1767330465.5886703,665.3909301757812,672.29443359375,711.2372436523438,530.418701171875
1767330465.5925765,704.7763061523438,705.2188110351562,721.1499633789062,659.6380615234375
1767330465.7309592,790.7160034179688,781.0687866210938,737.523681640625,912.8547973632812
1767330465.7348654,776.2894287109375,770.093994140625,735.3109741210938,833.6416015625
1767330465.7387717,693.801513671875,695.9256591796875,717.521240234375,567.2373657226562
1767330465.742678,694.8635864257812,688.048583984375,717.521240234375,591.9306640625
1767330465.6945019,777.70556640625,756.9065551757812,737.2581176757812,864.6188354492188
1767330465.6984081,793.1941528320312,789.4768676757812,743.2765502929688,893.0293579101562
1767330465.7023144,712.9188842773438,718.40625,725.3982543945312,631.2274780273438
1767330465.7062206,675.2151489257812,681.8531494140625,708.405029296875,563.5201416015625
1767330465.7101269,755.9329833984375,750.0030517578125,737.9661865234375,782.8389282226562
1767330465.7140331,803.637939453125,787.0872192382812,753.808837890625,919.4927368164062
1767330465.7179394,729.4695434570312,729.2925415039062,723.8936767578125,720.264892578125
1767330465.7218456,667.3380737304688,662.8242797851562,712.8303833007812,533.2509155273438
1767330465.7257519,715.5740966796875,701.944091796875,724.7787475585938,717.2556762695312
1767330465.7296581,786.4676513671875,789.2998657226562,742.5685424804688,930.7330932617188
1767330465.7335644,750.5341186523438,769.2089233398438,739.2937622070312,792.132080078125
1767330465.7374706,671.763427734375,682.7382202148438,720.7074584960938,550.244140625
1767330465.7413769,688.8451538085938,678.224365234375,720.087890625,635.9183349609375
1767330465.7452831,773.3687133789062,759.73876953125,737.523681640625,889.8431396484375
1767330465.6966982,772.7492065429688,775.846923828125,737.523681640625,856.7417602539062
1767330465.7006044,694.155517578125,701.76708984375,727.1683959960938,577.68115234375
1767330465.7045107,680.3485107421875,663.8863525390625,721.592529296875,561.572998046875
1767330465.708417,753.0122680664062,738.6742553710938,730.7086791992188,835.1461791992188
1767330465.7123232,789.8309326171875,805.0540161132812,743.4535522460938,900.8179321289062
1767330465.7162294,716.4591064453125,724.7787475585938,722.12353515625,657.3368530273438
1767330465.7201357,664.7714233398438,651.760986328125,708.6705932617188,533.2509155273438
1767330465.724042,731.2396850585938,721.946533203125,730.8856811523438,749.2949829101562
1767330465.7279482,789.5654296875,801.5137939453125,744.4271240234375,919.935302734375
1767330465.7318544,738.6742553710938,753.0122680664062,728.7615356445312,739.913330078125
1767330465.7357607,665.5679931640625,656.186279296875,708.22802734375,529.8876953125
1767330465.739667,701.6785888671875,681.4990844726562,720.7959594726562,663.5323486328125
1767330465.7435732,784.16650390625,781.1572875976562,744.4271240234375,906.216796875
1767330465.7474794,769.56298828125,787.3527221679688,746.374267578125,808.8598022460938
1767330465.813256,683.0922241210938,678.6669311523438,721.8580322265625,552.456787109375
1767330465.8171623,677.0737915039062,665.4794311523438,709.90966796875,602.1973876953125
1767330465.8210685,761.951416015625,777.70556640625,737.877685546875,859.1314086914062
1767330465.8249748,781.953857421875,797.3539428710938,745.7547607421875,881.612060546875
1767330465.828881,699.9969482421875,694.5980834960938,717.521240234375,632.7321166992188
1767330465.8327873,661.8507080078125,646.7161254882812,711.9453125,559.6258544921875
1767330465.8155067,736.4615478515625,733.806396484375,736.8156127929688,799.0355834960938
1767330465.819413,786.9987182617188,807.5322265625,745.0466918945312,927.3698120117188
1767330465.8233192,720.44189453125,728.4959716796875,730.7086791992188,715.3085327148438
1767330465.8272254,655.6552734375,647.7781982421875,720.6189575195312,538.9153442382812
1767330465.8311317,703.5372314453125,716.1051025390625,724.8672485351562,716.7246704101562
1767330465.835038,781.5113525390625,812.5770874023438,753.4547729492188,912.9432983398438
1767330465.8047767,747.7904052734375,750.6226196289062,746.1087646484375,780.0067138671875
1767330465.808683,663.974853515625,651.4954223632812,711.9453125,555.5545654296875
1767330465.8125892,692.6509399414062,693.62451171875,725.9293212890625,635.2987670898438
1767330465.8164954,779.3871459960938,785.671142578125,744.338623046875,894.8880004882812
1767330465.8204017,777.6170654296875,771.3330688476562,737.0811157226562,865.9464111328125
1767330465.824308,695.837158203125,684.2427978515625,721.3269653320312,597.3295288085938
1767330465.8282142,684.331298828125,679.8175048828125,721.76953125,569.4500122070312
1767330465.8321204,767.704345703125,763.987060546875,740.8869018554688,827.3576049804688
1767330465.8360267,798.239013671875,783.9010009765625,743.5421142578125,911.4386596679688
1767330465.839933,729.6466064453125,709.0245971679688,726.8143920898438,672.471435546875
1767330465.8438392,676.5427856445312,667.869140625,716.2821044921875,543.606201171875
1767330465.8477454,740.7984008789062,741.0639038085938,736.4615478515625,749.4719848632812
1767330465.8504434,802.3988037109375,785.5826416015625,750.5341186523438,926.9273071289062
1767330465.8543496,735.2224731445312,728.5845336914062,728.053466796875,757.9686279296875
1767330465.8582559,662.1162109375,678.1358642578125,713.0073852539062,538.4727783203125
1767330465.862162,704.4222412109375,719.1143188476562,724.6902465820312,678.7554321289062
1767330465.8660684,783.989501953125,784.0780029296875,741.77197265625,920.9973754882812
1767330465.8699746,759.4732055664062,762.6594848632812,737.0811157226562,825.7645263671875
1767330465.8738809,678.5784301757812,689.6417236328125,725.5753173828125,567.4143676757812
1767330465.877787,687.7830810546875,694.5095825195312,724.6902465820312,610.25146484375
1767330465.9175148,767.2617797851562,763.3674926757812,742.5685424804688,879.6649169921875
1767330465.921421,777.1744995117188,773.811279296875,749.4719848632812,890.1971435546875
1767330465.9253273,696.6337280273438,701.5015869140625,721.0614624023438,622.7308959960938
1767330465.9292336,669.6392822265625,681.1450805664062,717.1671752929688,540.7739868164062
1767330465.9331398,745.7547607421875,741.594970703125,736.2845458984375,792.7516479492188
1767330465.937046,782.8389282226562,779.918212890625,736.5501098632812,930.2020263671875
1767330465.9409523,716.0166015625,728.9385375976562,730.089111328125,699.2003784179688
1767330465.9448586,660.257568359375,671.3208618164062,719.73388671875,530.5072631835938
1767330465.9487648,713.7154541015625,707.6085205078125,726.2833251953125,720.087890625
1767330465.952671,780.09521484375,783.3699340820312,743.3650512695312,920.2008056640625
1767330465.9043944,740.3558349609375,763.2789916992188,734.9569702148438,767.2617797851562
1767330465.9083006,669.727783203125,680.8795776367188,714.2464599609375,535.9061279296875
1767330465.912207,695.9256591796875,688.048583984375,716.0166015625,645.2999877929688
1767330465.9161131,780.272216796875,776.200927734375,736.01904296875,898.251220703125
1767330465.9200194,774.9618530273438,778.7676391601562,739.736328125,847.89111328125
1767330465.9239256,696.7222290039062,699.8199462890625,728.5845336914062,569.1845092773438
1767330465.927832,685.2163696289062,666.8070678710938,721.76953125,563.608642578125
1767330465.9317381,760.8893432617188,740.5328979492188,730.1776123046875,848.6876831054688
1767330465.9356444,792.2205810546875,795.1412963867188,746.197265625,903.2075805664062
1767330465.9395506,720.7074584960938,719.6453857421875,726.19482421875,649.2827758789062
1767330465.943457,674.5956420898438,652.7345581054688,705.3073120117188,539.1808471679688
1767330465.9473631,742.0374755859375,729.1155395507812,725.3097534179688,763.7215576171875
1767330465.9512694,802.8413696289062,810.8069458007812,746.2857666015625,922.0594482421875
1767330465.9551756,749.2949829101562,755.5789794921875,733.806396484375,729.2925415039062
1767330465.9302301,678.5784301757812,660.4345703125,711.3257446289062,533.958984375
1767330465.9341364,717.9637451171875,696.7222290039062,722.9201049804688,683.4462280273438
1767330465.9380426,798.5930786132812,792.5746459960938,744.6041870117188,923.1215209960938
1767330465.941949,776.5549926757812,784.7860717773438,748.3214111328125,811.95751953125
1767330465.9458551,687.517578125,677.3392944335938,725.9293212890625,552.7223510742188
1767330465.9497614,683.1807250976562,667.0725708007812,713.803955078125,619.1906127929688
1767330465.9536676,766.6422729492188,778.8561401367188,739.6478271484375,873.5579833984375
1767330465.957574,778.236572265625,796.5574340820312,741.2409057617188,875.1510620117188
1767330466.0339715,694.4210205078125,693.1819458007812,716.5476684570312,617.863037109375
1767330466.0378778,665.83349609375,656.9828491210938,713.2728881835938,555.7315673828125
1767330466.041784,740.7098999023438,748.1444091796875,734.5144653320312,805.4080200195312
1767330466.0456903,787.2642211914062,810.27587890625,753.808837890625,907.3673706054688
1767330466.0495965,723.0086059570312,719.4683227539062,732.7443237304688,684.6853637695312
1767330466.0535028,661.4081420898438,645.3884887695312,702.8291625976562,542.0130615234375
1767330466.057409,722.2120361328125,726.371826171875,722.8316040039062,724.6902465820312
1767330466.0613153,790.0079345703125,810.452880859375,737.877685546875,946.398681640625
1767330466.0652215,749.6490478515625,757.703125,739.736328125,782.130859375
1767330466.0691278,684.2427978515625,662.5587768554688,736.9041137695312,521.568115234375
1767330466.073034,705.661376953125,691.8543701171875,722.9201049804688,652.468994140625
1767330466.0769403,785.4940795898438,792.486083984375,745.9317626953125,905.685791015625
1767330466.029107,775.3158569335938,771.5101318359375,745.0466918945312,850.9003295898438
1767330466.0330133,688.048583984375,671.0553588867188,714.157958984375,581.3983764648438
1767330466.0369196,680.5255737304688,672.5599975585938,711.1487426757812,576.0880126953125
1767330466.0408258,769.6514892578125,773.7227783203125,736.9926147460938,843.3772583007812
1767330466.044732,795.2297973632812,787.4412231445312,745.7547607421875,907.9869384765625
1767330466.0486383,715.3970336914062,701.5015869140625,730.9741821289062,654.2391357421875
1767330466.0525446,674.2415771484375,670.3472900390625,719.2913208007812,546.7039184570312
1767330466.0564508,745.3121948242188,758.6766967773438,741.948974609375,766.9962768554688
1767330466.060357,800.09765625,795.5838623046875,756.4639892578125,924.8916625976562
1767330466.0642633,736.373046875,719.8223876953125,726.19482421875,748.055908203125
1767330466.0681696,665.4794311523438,668.6657104492188,707.697021484375,538.7383422851562
1767330466.0720758,710.440673828125,714.6005249023438,723.2741088867188,692.7394409179688
1767330466.075982,785.671142578125,776.4664306640625,743.0995483398438,931.2640991210938
1767330466.0798883,755.2249145507812,749.2949829101562,737.877685546875,817.2678833007812
1767330466.1136594,674.8611450195312,677.1622924804688,720.7959594726562,561.3074340820312
1767330466.1175656,687.9600830078125,694.2440185546875,722.0350341796875,622.9078979492188
1767330466.121472,771.4215698242188,773.98828125,742.47998046875,888.7810668945312
1767330466.1253781,779.0331420898438,776.02392578125,746.4627685546875,881.5235595703125
1767330466.1292844,692.7394409179688,696.1026611328125,717.0786743164062,616.9779663085938
1767330466.1331906,669.1967163085938,687.517578125,716.8131713867188,551.0407104492188
1767330466.1880999,743.8961181640625,751.0651245117188,738.3201904296875,804.4344482421875
1767330466.192006,775.4043579101562,773.63427734375,736.5501098632812,929.2284545898438
1767330466.1959124,711.6798095703125,718.4947509765625,726.9913940429688,687.694580078125
1767330466.1998186,664.5059204101562,672.29443359375,713.7154541015625,534.7555541992188
1767330466.2037249,726.9028930664062,724.0706787109375,727.6109619140625,737.9661865234375
1767330466.207631,790.5390014648438,785.5826416015625,749.2949829101562,932.7687377929688
1767330466.1594896,737.9661865234375,746.8168334960938,734.160400390625,770.3594970703125
1767330466.163396,667.51513671875,675.3921508789062,712.9188842773438,536.7026977539062
1767330466.1673021,701.4130249023438,686.9865112304688,719.2028198242188,658.7529907226562
1767330466.1712084,779.564208984375,771.6871337890625,740.09033203125,908.5180053710938
1767330466.1751146,767.9698486328125,777.4400024414062,735.3109741210938,844.350830078125
1767330466.179021,688.402587890625,701.76708984375,726.1063232421875,569.9810791015625
1767330466.1829271,683.0922241210938,678.9324340820312,726.017822265625,574.494873046875
1767330466.1868334,761.5089111328125,749.3834838867188,724.5132446289062,860.0164794921875
1767330466.1907396,783.9010009765625,791.5125732421875,734.9569702148438,901.2604370117188
1767330466.194646,706.8119506835938,717.0786743164062,724.2476806640625,639.901123046875
1767330466.1985521,666.6300659179688,653.8851318359375,707.6085205078125,545.4647827148438
1767330466.2024584,739.2052612304688,731.5052490234375,724.7787475585938,780.09521484375
1767330466.2063646,793.813720703125,809.0368041992188,744.2501220703125,923.9180908203125
1767330466.210271,736.4615478515625,745.2236938476562,736.373046875,718.229248046875
1767330466.1948292,669.6392822265625,655.3012084960938,716.8131713867188,531.4807739257812
1767330466.1987355,711.6798095703125,706.6349487304688,726.7258911132812,693.2704467773438
1767330466.2026417,787.1757202148438,800.9827270507812,743.0995483398438,917.899658203125
1767330466.206548,764.4295654296875,782.307861328125,745.3121948242188,791.778076171875
1767330466.2104542,682.7382202148438,676.7197875976562,726.2833251953125,541.74755859375
1767330466.2143605,686.4554443359375,672.3829345703125,710.263671875,626.359619140625
1767330466.2182667,769.6514892578125,776.2894287109375,733.5408935546875,879.3108520507812
1767330466.222173,779.2986450195312,791.1585083007812,745.0466918945312,868.24755859375
1767330466.2260792,700.5280151367188,690.6152954101562,721.592529296875,615.5618896484375
1767330466.2299855,674.9496459960938,656.8058471679688,708.7590942382812,565.998291015625
1767330466.2338917,754.0743408203125,751.0651245117188,733.5408935546875,813.0195922851562
1767330466.237798,802.8413696289062,802.3988037109375,748.055908203125,912.5892944335938
1767330466.293284,732.3017578125,705.0418090820312,725.0442504882812,685.8359375
1767330466.2971902,674.153076171875,635.9183349609375,716.8131713867188,534.5785522460938
1767330466.2770946,703.7142333984375,703.3601684570312,720.087890625,664.5944213867188
1767330466.2810009,790.6275024414062,799.566650390625,748.055908203125,910.111083984375
1767330466.284907,773.1032104492188,771.5986328125,738.3201904296875,846.8290405273438
1767330466.2888134,686.366943359375,670.7013549804688,717.0786743164062,584.7616577148438
1767330466.2927196,684.2427978515625,675.4806518554688,716.37060546875,596.7985229492188
1767330466.2966259,771.3330688476562,766.19970703125,740.9754028320312,859.8394775390625
1767330466.2993262,792.132080078125,789.6539306640625,745.84326171875,937.2825317382812
