timestamp,tp9,af7,af8,tp10
1767330479.6276999,777.1744995117188,786.8217163085938,744.4271240234375,905.9512939453125
1767330479.631606,760.1812744140625,758.05712890625,738.40869140625,831.3403930664062
1767330479.6355124,679.0209350585938,672.117431640625,714.0694580078125,574.5834350585938
1767330479.6394186,675.2151489257812,683.2692260742188,714.7775268554688,592.9927368164062
1767330479.6433249,763.3674926757812,772.2181396484375,744.4271240234375,842.9347534179688
1767330479.647231,781.77685546875,771.5986328125,740.3558349609375,892.2327880859375
1767330479.6118088,701.590087890625,694.33251953125,716.6361694335938,646.18505859375
1767330479.615715,673.799072265625,676.7197875976562,712.7418823242188,549.0050659179688
1767330479.6196213,750.5341186523438,744.6041870117188,734.0718994140625,792.2205810546875
1767330479.6235275,802.4873046875,790.0079345703125,749.1179809570312,929.4054565429688
1767330479.6274338,738.4971923828125,736.1075439453125,728.3189697265625,712.476318359375
1767330479.63134,675.2151489257812,676.7197875976562,709.8211669921875,530.418701171875
1767330479.6352463,726.6373901367188,708.5820922851562,723.2741088867188,706.9889526367188
1767330479.6391525,799.4780883789062,782.9274291992188,737.6121826171875,918.3421630859375
1767330479.6430588,761.951416015625,758.8536987304688,730.8856811523438,788.1492919921875
1767330479.646965,685.2163696289062,691.1463012695312,720.3533935546875,550.9522094726562
1767330479.6508713,708.9360961914062,706.1923828125,732.3902587890625,619.8101806640625
1767330479.6547775,784.343505859375,765.7572021484375,742.8340454101562,887.1879272460938
1767330479.6586838,774.34228515625,762.9249877929688,737.1696166992188,867.8935546875
1767330479.66259,685.9244384765625,691.3233032226562,721.0614624023438,598.8341674804688
1767330479.621583,666.7185668945312,673.97607421875,718.40625,579.4512329101562
1767330479.6254892,748.055908203125,750.091552734375,741.594970703125,836.7393188476562
1767330479.6293955,780.3607177734375,792.30908203125,751.9501953125,908.6950073242188
1767330479.6333017,704.4222412109375,730.3546142578125,732.6558227539062,662.293212890625
1767330479.637208,657.867919921875,670.7898559570312,715.7510986328125,538.7383422851562
1767330479.6411142,722.3890380859375,723.80517578125,726.371826171875,752.7467651367188
1767330479.6450205,780.6262817382812,793.2826538085938,742.8340454101562,920.1123046875
1767330479.6489267,731.770751953125,754.8709106445312,732.6558227539062,740.8869018554688
1767330479.652833,669.8162841796875,676.01171875,720.087890625,526.0819091796875
1767330479.6567392,706.5464477539062,689.9957275390625,724.4246826171875,677.693359375
1767330479.6606455,784.343505859375,780.0067138671875,738.3201904296875,917.1915893554688
1767330479.6645517,768.058349609375,783.1929321289062,740.0018310546875,816.9138793945312
1767330479.7343616,687.4290161132812,692.9164428710938,724.9557495117188,572.0167236328125
1767330479.738268,687.7830810546875,683.4462280273438,719.73388671875,608.392822265625
1767330479.7421741,772.7492065429688,774.165283203125,733.62939453125,859.8394775390625
1767330479.7460804,791.8665771484375,805.3195190429688,743.1880493164062,877.540771484375
1767330479.7499866,710.7062377929688,711.768310546875,727.9649658203125,629.3688354492188
1767330479.753893,674.8611450195312,661.2311401367188,716.9901733398438,556.9706420898438
1767330479.7577991,747.3478393554688,745.666259765625,735.4879760742188,787.1757202148438
1767330479.7617054,795.4067993164062,808.240234375,748.055908203125,913.828369140625
1767330479.7656116,723.3626098632812,735.0454711914062,720.264892578125,724.0706787109375
1767330479.769518,668.9312133789062,663.620849609375,718.7603149414062,523.5152587890625
1767330479.7218847,727.2568969726562,709.732666015625,733.8948974609375,691.94287109375
1767330479.725791,792.7516479492188,794.0792236328125,740.0018310546875,918.9617309570312
1767330479.7296972,758.6766967773438,759.561767578125,740.3558349609375,781.5113525390625
1767330479.7336035,676.01171875,661.6737060546875,717.1671752929688,552.102783203125
1767330479.7375097,690.3497314453125,682.295654296875,723.8936767578125,633.8826904296875
1767330479.741416,779.0331420898438,788.9458618164062,750.7996215820312,885.1522827148438
1767330479.7453222,778.7676391601562,790.5390014648438,746.197265625,856.8302612304688
1767330479.7492285,689.4646606445312,689.8187255859375,720.5304565429688,598.214599609375
1767330479.7531347,671.1438598632812,669.6392822265625,712.29931640625,575.2029418945312
1767330479.757041,753.1892700195312,770.7135620117188,735.6650390625,824.348388671875
1767330479.7609472,794.6102905273438,812.4000244140625,760.0927734375,885.8603515625
1767330479.7648535,718.05224609375,712.2108154296875,731.6822509765625,665.4794311523438
1767330479.7687597,661.4966430664062,653.61962890625,703.0061645507812,553.1648559570312
1767330479.772666,729.912109375,736.9041137695312,732.3902587890625,756.37548828125
1767330479.7701063,793.0171508789062,801.6907958984375,758.05712890625,930.29052734375
1767330479.7740126,736.373046875,736.1075439453125,734.8684692382812,750.0030517578125
1767330479.7779188,663.3552856445312,661.8507080078125,713.1843872070312,540.3314208984375
1767330479.781825,703.8912353515625,714.3349609375,724.1591796875,673.7105712890625
1767330479.7857313,788.5033569335938,792.6631469726562,740.09033203125,909.4915161132812
1767330479.7896376,765.9342041015625,753.7203369140625,732.3902587890625,819.2150268554688
1767330479.7935438,679.4634399414062,666.7185668945312,711.0602416992188,565.7327880859375
1767330479.79745,686.4554443359375,691.5003662109375,714.157958984375,603.4364624023438
1767330479.8669646,778.8561401367188,785.2285766601562,748.409912109375,850.5463256835938
1767330479.8708708,789.6539306640625,777.70556640625,746.5513305664062,880.6384887695312
1767330479.874777,706.5464477539062,696.5452270507812,720.3533935546875,635.829833984375
1767330479.8786833,681.8531494140625,684.154296875,720.7959594726562,557.855712890625
1767330479.8825896,754.33984375,750.3570556640625,732.3017578125,802.13330078125
1767330479.8864958,800.7172241210938,789.0343627929688,742.2144775390625,922.14794921875
1767330479.890402,736.7271118164062,732.478759765625,731.4166870117188,697.2532348632812
1767330479.8943083,674.6841430664062,676.4542236328125,713.5384521484375,529.53369140625
1767330479.8982146,725.9293212890625,717.6097412109375,726.8143920898438,721.946533203125
1767330479.9021208,793.4596557617188,777.6170654296875,742.5685424804688,924.6261596679688
1767330479.861627,752.3927001953125,740.7984008789062,731.3281860351562,776.200927734375
1767330479.8655334,670.9668579101562,680.3485107421875,716.4591064453125,545.5533447265625
1767330479.8694396,698.9348754882812,705.3958129882812,734.160400390625,633.5286865234375
1767330479.8733459,779.6527099609375,762.12841796875,746.5513305664062,895.5960693359375
1767330479.877252,765.668701171875,755.7559814453125,738.7627563476562,857.892333984375
1767330479.8811584,687.87158203125,696.191162109375,723.3626098632812,592.0191650390625
1767330479.8850646,682.295654296875,686.012939453125,719.910888671875,592.3731689453125
1767330479.8889709,759.73876953125,756.2869873046875,732.9213256835938,846.1209716796875
1767330479.892877,786.9102172851562,785.3170776367188,738.231689453125,898.8707885742188
1767330479.8967834,713.3613891601562,725.2212524414062,726.4603271484375,652.6460571289062
1767330479.9006896,669.4622192382812,673.3565063476562,718.229248046875,545.995849609375
1767330479.9045959,738.7627563476562,722.12353515625,734.0718994140625,772.306640625
1767330479.8718202,799.8321533203125,787.6182861328125,748.3214111328125,931.0870971679688
1767330479.8757265,742.1259765625,748.9409790039062,737.2581176757812,738.231689453125
1767330479.8796327,675.9232177734375,679.0209350585938,729.912109375,526.347412109375
1767330479.883539,712.2108154296875,696.1026611328125,734.7799682617188,689.1106567382812
1767330479.8874452,783.1929321289062,778.6791381835938,747.52490234375,927.3698120117188
1767330479.8913515,762.9249877929688,773.7227783203125,740.3558349609375,814.7897338867188
1767330479.8952577,676.6312866210938,674.5071411132812,711.5028076171875,565.0247192382812
1767330479.899164,679.6405029296875,669.0197143554688,715.3970336914062,619.898681640625
1767330479.9030702,769.1204223632812,764.341064453125,742.1259765625,880.6384887695312
1767330479.9069765,781.2457885742188,790.9815063476562,746.1087646484375,879.3108520507812
1767330480.0019765,703.0061645507812,703.0946655273438,728.1419677734375,628.9263305664062
1767330480.0058827,675.2151489257812,661.0541381835938,719.1143188476562,579.893798828125
1767330480.009789,747.0823364257812,744.0731201171875,734.9569702148438,820.1885986328125
1767330480.0136952,794.2562255859375,817.6219482421875,755.3134155273438,915.0674438476562
1767330480.0176015,730.3546142578125,747.1708374023438,746.374267578125,686.18994140625
1767330480.0215077,668.5772094726562,653.1770629882812,717.4326782226562,553.1648559570312
1767330480.025414,723.0086059570312,711.6798095703125,722.5661010742188,754.162841796875
1767330480.0293202,792.6631469726562,805.7620849609375,749.1179809570312,924.4490966796875
1767330480.0332265,752.8352661132812,754.5169067382812,738.0546875,771.6871337890625
1767330480.0371327,675.2151489257812,656.36328125,711.5028076171875,564.316650390625
1767330479.9887247,701.4130249023438,694.5095825195312,722.3890380859375,660.7886352539062
1767330479.992631,785.2285766601562,792.30908203125,740.8869018554688,896.1270751953125
1767330479.9965372,779.7412109375,776.6434936523438,740.0018310546875,844.8818969726562
1767330480.0004435,695.7486572265625,681.2335815429688,721.946533203125,594.6743774414062
1767330480.0043497,686.7210083007812,677.2507934570312,713.98095703125,591.3995971679688
1767330480.008256,770.8905639648438,776.2894287109375,734.33740234375,844.7048950195312
1767330480.0121622,798.9470825195312,810.098876953125,753.7203369140625,888.6040649414062
1767330480.0160685,719.8223876953125,712.29931640625,729.912109375,658.1334228515625
1767330480.0199747,669.8162841796875,660.7001342773438,710.5292358398438,562.8120727539062
1767330480.023881,737.877685546875,742.2144775390625,729.6466064453125,773.63427734375
1767330480.0277872,799.8321533203125,798.416015625,745.84326171875,929.1399536132812
1767330480.0316935,740.3558349609375,726.9913940429688,730.26611328125,737.2581176757812
1767330480.0355997,670.1702880859375,659.3724975585938,711.5028076171875,542.5441284179688
1767330480.039506,717.7867431640625,722.2120361328125,724.336181640625,696.8992309570312
1767330480.014667,793.63671875,800.8942260742188,744.6041870117188,923.9180908203125
1767330480.0185733,763.3674926757812,760.44677734375,739.3822631835938,816.4713134765625
1767330480.0224795,677.4277954101562,676.7197875976562,719.3798217773438,564.8477172851562
1767330480.0263858,683.0037231445312,697.4302368164062,718.7603149414062,617.4204711914062
1767330480.030292,774.0767822265625,791.4240112304688,750.091552734375,866.6544799804688
1767330480.0341983,775.9354248046875,774.6963500976562,747.2593383789062,872.141845703125
1767330480.0381045,686.8095092773438,678.5784301757812,713.3613891601562,620.6952514648438
1767330480.0420108,664.5944213867188,675.834716796875,710.086669921875,561.1304321289062
1767330480.168218,742.9225463867188,751.0651245117188,728.9385375976562,813.1080932617188
1767330480.1721241,786.9987182617188,777.1744995117188,738.4971923828125,917.4570922851562
1767330480.1444716,716.9016723632812,719.556884765625,725.2212524414062,685.2163696289062
1767330480.148378,664.2403564453125,677.9588623046875,716.7246704101562,535.3750610351562
1767330480.1522841,731.6822509765625,732.5673217773438,733.4523315429688,738.3201904296875
1767330480.1561904,795.4953002929688,788.1492919921875,746.9938354492188,929.4939575195312
1767330480.1600966,750.3570556640625,743.5421142578125,737.6121826171875,763.8985595703125
1767330480.164003,677.870361328125,680.260009765625,721.3269653320312,537.4992065429688
1767330480.1679091,698.7578735351562,708.4935302734375,715.0430297851562,675.65771484375
1767330480.1718154,781.2457885742188,787.9722900390625,737.6121826171875,904.7122192382812
1767330480.1757216,777.3515014648438,775.0503540039062,749.91455078125,808.063232421875
1767330480.179628,688.6681518554688,686.2784423828125,719.0258178710938,573.8753662109375
1767330480.1835341,682.47265625,678.4013671875,715.3970336914062,591.8421630859375
1767330480.1874404,767.4387817382812,753.8973388671875,735.842041015625,853.1129760742188
1767330480.138565,788.23779296875,777.528564453125,744.7811889648438,896.6581420898438
1767330480.1424713,711.5028076171875,708.7590942382812,727.0798950195312,640.43212890625
1767330480.1463776,674.5071411132812,667.9576416015625,715.839599609375,549.713134765625
1767330480.1502838,741.3294067382812,733.8948974609375,728.6730346679688,783.1044311523438
1767330480.15419,795.849365234375,796.1148681640625,739.2052612304688,922.324951171875
1767330480.1580963,728.6730346679688,744.4271240234375,725.7523193359375,719.6453857421875
1767330480.1620026,666.7185668945312,677.0737915039062,722.3890380859375,525.5509033203125
1767330480.1659088,712.3878173828125,702.298095703125,730.3546142578125,697.69580078125
1767330480.169815,781.6883544921875,780.3607177734375,739.913330078125,930.7330932617188
1767330480.1737213,755.4904174804688,773.4572143554688,739.3822631835938,803.81494140625
1767330480.1776276,667.692138671875,682.2071533203125,720.3533935546875,560.7764282226562
1767330480.1815338,674.4185791015625,676.36572265625,718.8488159179688,631.2274780273438
1767330480.18544,757.526123046875,767.3502807617188,734.160400390625,881.7890625
1767330480.1893463,767.1732788085938,786.6447143554688,740.0018310546875,862.5831909179688
1767330480.1927493,691.6773681640625,696.7222290039062,722.5661010742188,609.1008911132812
1767330480.1966555,668.3116455078125,664.15185546875,717.1671752929688,572.6362915039062
1767330480.2005618,744.5156860351562,751.5076904296875,741.0639038085938,817.9759521484375
1767330480.204468,782.7504272460938,808.6828002929688,747.6134033203125,905.0662231445312
1767330480.2265308,721.3269653320312,741.1524047851562,739.559326171875,661.2311401367188
1767330480.230437,668.8427124023438,656.0977783203125,716.5476684570312,533.5164794921875
1767330480.2343433,723.8936767578125,714.0694580078125,715.839599609375,745.7547607421875
1767330480.2382495,794.6102905273438,807.4436645507812,738.5857543945312,912.2352294921875
1767330480.2421558,749.1179809570312,755.0479125976562,730.089111328125,754.33984375
1767330480.246062,672.5599975585938,660.08056640625,709.0245971679688,541.3049926757812
1767330480.2499683,706.7234497070312,696.5452270507812,719.1143188476562,654.7702026367188
1767330480.2538745,791.3355102539062,802.7528686523438,748.3214111328125,892.5868530273438
1767330480.2577808,780.8032836914062,788.7688598632812,739.1167602539062,827.6231689453125
1767330480.261687,693.8900146484375,682.11865234375,711.59130859375,580.1593017578125
1767330480.2655933,685.3933715820312,672.7369995117188,713.5384521484375,593.7008056640625
1767330480.2694995,770.0054931640625,779.4756469726562,733.4523315429688,853.998046875
1767330480.2734058,798.5930786132812,811.780517578125,746.020263671875,881.7890625
1767330480.277312,712.29931640625,697.7843017578125,723.2741088867188,636.0953369140625
1767330480.229002,669.1082153320312,647.689697265625,706.369384765625,560.8649291992188
1767330480.2329082,742.7455444335938,741.3294067382812,733.8948974609375,782.8389282226562
1767330480.2368145,790.096435546875,797.0884399414062,747.6134033203125,919.8468017578125
1767330480.2407207,726.8143920898438,722.0350341796875,728.407470703125,720.8844604492188
1767330480.244627,658.3104248046875,656.8058471679688,711.9453125,538.0302734375
1767330480.2485332,700.8820190429688,716.4591064453125,720.7959594726562,693.62451171875
1767330480.2524395,779.1216430664062,795.4067993164062,738.3201904296875,913.4743041992188
1767330480.2563457,749.3834838867188,748.6754760742188,735.9305419921875,802.6643676757812
1767330480.260252,666.8955688476562,656.0977783203125,714.6890258789062,558.03271484375
1767330480.2641582,684.331298828125,687.7830810546875,717.3441772460938,627.7757568359375
1767330480.2680645,775.2273559570312,792.2205810546875,752.6582641601562,871.6993408203125
1767330480.2719707,775.846923828125,774.165283203125,743.7191162109375,858.5119018554688
1767330480.275877,688.1370849609375,682.8267211914062,706.1923828125,612.464111328125
1767330480.2797832,674.5071411132812,680.1715087890625,709.2901000976562,568.8305053710938
1767330480.2958815,753.6318359375,754.4283447265625,734.7799682617188,819.923095703125
1767330480.2997878,788.060791015625,776.4664306640625,742.7455444335938,908.9605102539062
1767330480.303694,719.9993896484375,709.8211669921875,726.017822265625,676.6312866210938
1767330480.3076003,672.6484985351562,674.330078125,712.5648803710938,539.0038452148438
1767330480.3804255,739.2937622070312,732.3017578125,729.735107421875,747.6134033203125
1767330480.3843317,802.4873046875,782.48486328125,738.7627563476562,929.8480224609375
1767330480.388238,747.9674072265625,739.2937622070312,724.9557495117188,752.5697631835938
1767330480.3921442,673.1795043945312,680.1715087890625,714.3349609375,540.06591796875
1767330480.3960505,717.0786743164062,721.6810302734375,732.5673217773438,661.2311401367188
1767330480.3999567,798.5930786132812,780.44921875,742.6570434570312,905.1547241210938
1767330480.3523326,772.483642578125,753.7203369140625,727.2568969726562,838.1553955078125
1767330480.3562388,688.4910888671875,688.6681518554688,714.6005249023438,573.9638671875
1767330480.360145,695.9256591796875,695.2175903320312,719.73388671875,607.1537475585938
1767330480.3640513,778.0595703125,767.6158447265625,740.5328979492188,872.141845703125
1767330480.3679576,791.6895751953125,785.2285766601562,748.3214111328125,893.4718627929688
1767330480.3718638,710.263671875,716.9016723632812,725.7523193359375,635.829833984375
1767330480.37577,673.4450073242188,671.3208618164062,712.2108154296875,560.3338623046875
1767330480.3796763,747.3478393554688,730.7086791992188,732.9213256835938,804.9655151367188
1767330480.3835826,796.2918701171875,794.2562255859375,746.6398315429688,931.1755981445312
1767330480.3874888,725.0442504882812,744.8696899414062,730.9741821289062,714.157958984375
1767330480.391395,661.3196411132812,679.906005859375,726.7258911132812,527.85205078125
1767330480.3953013,710.5292358398438,705.9268798828125,737.6121826171875,715.0430297851562
1767330480.3992076,776.02392578125,781.6883544921875,742.2144775390625,937.3710327148438
1767330480.4031138,743.0995483398438,770.8905639648438,740.9754028320312,787.7952880859375
1767330480.3842661,666.1875,680.0830078125,722.2120361328125,549.0935668945312
1767330480.3881724,682.11865234375,675.65771484375,717.7867431640625,632.6436157226562
1767330480.3920786,767.3502807617188,769.1204223632812,737.7891845703125,880.8154907226562
1767330480.395985,772.9262084960938,786.4676513671875,742.3914794921875,847.537109375
1767330480.3998911,694.7750854492188,699.1118774414062,721.592529296875,592.9042358398438
1767330480.4037974,676.01171875,669.4622192382812,713.1843872070312,575.0259399414062
1767330480.4077036,757.526123046875,752.6582641601562,737.1696166992188,825.1449584960938
1767330480.41161,791.3355102539062,803.5494384765625,746.9938354492188,897.543212890625
1767330480.4155161,720.7959594726562,734.160400390625,738.9397583007812,648.043701171875
1767330480.4194224,672.2059326171875,658.6644897460938,723.0086059570312,534.7555541992188
1767330480.4233286,725.1327514648438,716.193603515625,725.663818359375,758.9421997070312
1767330480.427235,788.23779296875,802.2218017578125,750.7996215820312,915.510009765625
1767330480.4821284,741.594970703125,747.9674072265625,738.5857543945312,741.2409057617188
1767330480.4860346,663.0897827148438,654.8587036132812,711.59130859375,537.67626953125
1767330480.489941,702.6521606445312,694.5980834960938,726.371826171875,677.4277954101562
1767330480.4938471,792.132080078125,799.1240844726562,751.6846923828125,913.828369140625
1767330480.4977534,768.7664184570312,784.2550048828125,741.3294067382812,821.78173828125
1767330480.5016596,685.2163696289062,676.9852905273438,716.4591064453125,573.5213623046875
1767330480.505566,694.5980834960938,671.8519287109375,711.9453125,612.0216064453125
1767330480.5094721,784.7860717773438,768.6779174804688,735.842041015625,866.388916015625
1767330480.5133784,795.7608642578125,791.5125732421875,733.806396484375,909.3145141601562
1767330480.5172846,711.4142456054688,707.6085205078125,721.4154663085938,647.2471313476562
1767330480.4895465,688.048583984375,667.692138671875,731.770751953125,536.7026977539062
1767330480.4934528,760.9778442382812,751.6846923828125,733.9833984375,796.8229370117188
1767330480.497359,801.5137939453125,809.4793090820312,740.4443359375,922.4134521484375
1767330480.5012653,735.3109741210938,722.3890380859375,732.8328247070312,705.9268798828125
1767330480.5051715,673.1795043945312,656.8943481445312,716.9901733398438,540.242919921875
1767330480.5090778,722.8316040039062,724.336181640625,723.80517578125,711.0602416992188
1767330480.512984,797.6195068359375,797.3539428710938,743.3650512695312,916.9260864257812
1767330480.5168903,752.30419921875,744.6041870117188,733.0098266601562,780.5377807617188
1767330480.5207965,670.3472900390625,663.7978515625,711.8568115234375,546.7924194335938
1767330480.5247028,692.9164428710938,699.9969482421875,717.3441772460938,639.6356201171875
1767330480.528609,784.4320068359375,800.09765625,751.59619140625,876.4786376953125
1767330480.5325153,778.236572265625,779.3871459960938,750.3570556640625,845.2359008789062
1767330480.5122447,681.7646484375,676.9852905273438,717.7867431640625,600.8698120117188
1767330480.516151,669.9932861328125,674.2415771484375,722.300537109375,574.2293701171875
1767330480.5200572,759.4732055664062,760.9778442382812,744.5156860351562,833.9071044921875
1767330480.5239635,786.5562133789062,774.7848510742188,745.1351928710938,903.5616455078125
1767330480.5278697,706.7234497070312,697.3417358398438,724.6902465820312,656.00927734375
1767330480.531776,658.3104248046875,666.5415649414062,710.6177368164062,534.8440551757812
1767330480.5356822,726.4603271484375,737.7891845703125,726.9028930664062,757.9686279296875
1767330480.5395885,785.671142578125,789.2998657226562,742.6570434570312,926.3077392578125
1767330480.5434947,727.9649658203125,736.01904296875,736.1075439453125,737.3466186523438
1767330480.547401,659.0184936523438,674.5071411132812,718.8488159179688,534.9325561523438
1767330480.6249619,706.8119506835938,724.0706787109375,734.6914672851562,670.9668579101562
1767330480.628868,784.8745727539062,780.09521484375,752.7467651367188,909.3145141601562
1767330480.6327744,760.44677734375,744.6926879882812,733.8948974609375,827.888671875
1767330480.6366806,683.7117919921875,680.1715087890625,720.9729614257812,569.0960083007812
1767330480.6405869,692.119873046875,689.1991577148438,720.7074584960938,615.2078247070312
1767330480.644493,777.1744995117188,761.5089111328125,737.2581176757812,879.75341796875
1767330480.6483994,788.060791015625,774.9618530273438,742.9225463867188,886.5684204101562
1767330480.6523056,705.661376953125,708.5820922851562,723.2741088867188,621.0492553710938
1767330480.604065,680.8795776367188,677.516357421875,720.1763916015625,561.927001953125
1767330480.6079712,757.9686279296875,734.0718994140625,737.7891845703125,815.7633056640625
1767330480.6118774,796.8229370117188,784.343505859375,748.4984130859375,922.2364501953125
1767330480.6157837,727.5224609375,737.9661865234375,728.4959716796875,692.473876953125
1767330480.61969,676.1002197265625,688.3140869140625,719.2028198242188,522.5416870117188
1767330480.6235962,728.8500366210938,718.229248046875,732.478759765625,721.76953125
1767330480.6275024,791.955078125,781.599853515625,735.3109741210938,931.6181640625
1767330480.6314087,750.7111206054688,761.0663452148438,731.59375,765.845703125
1767330480.635315,674.4185791015625,682.6497192382812,721.4154663085938,544.9337768554688
1767330480.6392212,700.1739501953125,693.0934448242188,725.1327514648438,657.1598510742188
1767330480.6431274,774.8733520507812,776.3779296875,740.6213989257812,895.6845703125
1767330480.6470337,763.7215576171875,782.6619262695312,736.01904296875,837.0048217773438
1767330480.65094,682.8267211914062,695.1290893554688,721.4154663085938,580.6903686523438
1767330480.6548462,669.6392822265625,668.5772094726562,719.1143188476562,581.2213745117188
1767330480.6216607,750.5341186523438,756.021484375,736.2845458984375,837.0933227539062
1767330480.625567,780.272216796875,796.9114379882812,742.5685424804688,895.6845703125
1767330480.6294732,706.1923828125,729.6466064453125,735.3994750976562,642.290771484375
1767330480.6333795,661.4966430664062,658.7529907226562,727.0798950195312,544.8452758789062
1767330480.6372857,721.8580322265625,716.4591064453125,727.87646484375,783.5469970703125
1767330480.641192,776.2894287109375,805.4080200195312,742.5685424804688,922.4134521484375
1767330480.6450982,723.0086059570312,750.091552734375,729.3810424804688,728.7615356445312
1767330480.6490045,656.8058471679688,655.3897094726562,709.90966796875,542.0130615234375
1767330480.6529107,699.0233764648438,699.6429443359375,720.087890625,692.296875
1767330480.656817,776.9089965820312,802.8413696289062,743.0995483398438,910.7306518554688
1767330480.7318554,757.0835571289062,780.272216796875,743.2765502929688,808.9483032226562
1767330480.7357616,677.0737915039062,675.2151489257812,717.9637451171875,572.2822265625
1767330480.739668,685.658935546875,683.0037231445312,716.1051025390625,623.969970703125
1767330480.7435741,772.8377075195312,781.6883544921875,746.374267578125,881.0809936523438
1767330480.7474804,791.8665771484375,802.6643676757812,765.0491333007812,869.6636962890625
1767330480.7513866,708.3165283203125,694.0670166015625,734.0718994140625,615.2078247070312
1767330480.755293,671.0553588867188,654.5046997070312,706.369384765625,578.03515625
1767330480.7591991,749.3834838867188,753.1007690429688,728.4959716796875,811.6920166015625
1767330480.7631054,790.1849365234375,799.566650390625,745.4006958007812,911.0846557617188
1767330480.7670116,716.37060546875,711.9453125,728.1419677734375,690.26123046875
1767330480.770918,656.36328125,649.54833984375,711.8568115234375,538.8268432617188
1767330480.7748241,717.2556762695312,726.6373901367188,729.3810424804688,729.735107421875
1767330480.7392552,792.0435791015625,800.8942260742188,751.5076904296875,918.4306640625
1767330480.7431614,744.9581909179688,744.4271240234375,739.559326171875,768.3238525390625
1767330480.7470677,664.9484252929688,662.3817138671875,717.0786743164062,545.5533447265625
1767330480.750974,694.9520874023438,702.3865966796875,718.229248046875,657.1598510742188
1767330480.7548802,783.635498046875,810.27587890625,753.4547729492188,892.0557861328125
1767330480.7587864,772.129638671875,774.165283203125,750.7996215820312,831.9599609375
1767330480.7626927,679.906005859375,660.8771362304688,711.3257446289062,591.57666015625
1767330480.766599,673.1795043945312,670.8783569335938,715.9281005859375,589.1869506835938
1767330480.7705052,756.1099853515625,768.5009155273438,745.4891967773438,841.8726806640625
1767330480.7744114,773.8997802734375,784.9630737304688,746.1087646484375,889.931640625
1767330480.7783177,694.2440185546875,701.2360229492188,721.0614624023438,638.396484375
1767330480.782224,653.9736328125,665.9219970703125,711.3257446289062,533.958984375
1767330480.7861302,729.735107421875,741.3294067382812,730.443115234375,764.5181274414062
1767330480.7900364,791.8665771484375,790.3619384765625,746.197265625,918.6077270507812
1767330480.7727532,733.2753295898438,731.0626831054688,733.5408935546875,719.556884765625
1767330480.7766595,664.4173583984375,671.4093627929688,713.98095703125,535.5521240234375
1767330480.7805657,719.2913208007812,726.4603271484375,735.0454711914062,688.5796508789062
1767330480.784472,796.4688720703125,786.2906494140625,753.4547729492188,908.3409423828125
1767330480.7883782,757.7916259765625,744.5156860351562,732.478759765625,809.3023071289062
1767330480.7922845,676.6312866210938,676.4542236328125,714.9545288085938,561.8385009765625
1767330480.895645,689.2876586914062,689.6417236328125,720.5304565429688,626.1826171875
1767330480.8995512,776.9974975585938,766.1112060546875,737.1696166992188,890.462646484375
1767330480.9034574,786.7332153320312,777.2630004882812,738.6742553710938,880.6384887695312
1767330480.9073637,700.08544921875,703.8912353515625,720.3533935546875,614.2342529296875
1767330480.8587883,680.3485107421875,680.7910766601562,720.3533935546875,571.57421875
1767330480.8626945,762.9249877929688,746.5513305664062,744.2501220703125,829.5703125
1767330480.8666008,795.1412963867188,786.1136474609375,746.9938354492188,920.9088745117188
1767330480.870507,721.2384643554688,726.19482421875,725.3097534179688,678.1358642578125
1767330480.8744133,667.9576416015625,670.9668579101562,706.7234497070312,553.2533569335938
1767330480.8783195,726.9028930664062,718.6718139648438,714.2464599609375,765.0491333007812
1767330480.8822258,802.4873046875,795.2297973632812,753.8973388671875,902.4110107421875
1767330480.886132,751.1536254882812,754.4283447265625,743.2765502929688,740.1788330078125
1767330480.8900383,669.3737182617188,672.0289306640625,713.5384521484375,545.2877807617188
1767330480.8939445,697.6072998046875,689.4646606445312,720.264892578125,659.7265625
1767330480.8978508,773.98828125,768.9434204101562,736.4615478515625,895.507568359375
1767330480.901757,758.4996337890625,766.1112060546875,736.9926147460938,820.0115966796875
1767330480.9056633,675.0381469726562,684.5083618164062,720.9729614257812,565.998291015625
1767330480.9095695,674.2415771484375,668.7542114257812,720.6189575195312,591.2225952148438
1767330480.869319,758.5881958007812,754.6054077148438,734.6914672851562,847.89111328125
1767330480.8732252,771.6871337890625,787.3527221679688,734.6914672851562,879.930419921875
1767330480.8771315,696.3681640625,724.6902465820312,732.3017578125,621.4917602539062
1767330480.8810377,664.0633544921875,668.1346435546875,728.053466796875,537.853271484375
1767330480.884944,730.5316772460938,725.4867553710938,726.8143920898438,784.16650390625
1767330480.8888502,782.9274291992188,795.4953002929688,739.2052612304688,908.25244140625
1767330480.8927565,724.8672485351562,733.62939453125,730.6201782226562,701.76708984375
1767330480.8966627,661.76220703125,656.2747802734375,713.0073852539062,533.3394165039062
1767330480.900569,712.7418823242188,704.8648071289062,722.8316040039062,704.15673828125
1767330480.9044752,790.6275024414062,790.8045043945312,742.6570434570312,916.5720825195312
1767330480.9083815,760.1812744140625,765.9342041015625,738.6742553710938,792.2205810546875
1767330480.9122877,680.43701171875,670.8783569335938,721.8580322265625,561.3959350585938
1767330480.9333193,697.69580078125,685.2163696289062,725.663818359375,638.1309814453125
1767330480.9372256,780.5377807617188,787.1757202148438,735.2224731445312,891.1707153320312
1767330481.008394,784.9630737304688,800.9827270507812,743.5421142578125,855.4141235351562
1767330481.0123003,702.9176635742188,691.5888671875,727.5224609375,599.0996704101562
1767330480.9768603,675.5692138671875,652.9115600585938,706.1923828125,593.8778076171875
1767330480.9807665,762.3939208984375,755.4019165039062,738.4971923828125,824.7909545898438
1767330480.9846728,802.9298706054688,803.991943359375,751.6846923828125,908.1639404296875
1767330480.988579,724.7787475585938,709.0245971679688,720.7074584960938,697.69580078125
1767330480.9924853,675.4806518554688,647.689697265625,713.7154541015625,555.7315673828125
1767330480.9963915,736.6386108398438,731.0626831054688,737.0811157226562,754.33984375
1767330481.0002978,801.602294921875,810.9839477539062,753.3662719726562,932.5917358398438
1767330481.004204,747.52490234375,746.374267578125,733.9833984375,764.6066284179688
1767330481.0081103,668.9312133789062,662.47021484375,711.3257446289062,546.7039184570312
1767330481.0120165,700.1739501953125,703.7142333984375,714.6005249023438,669.1967163085938
1767330481.0159228,788.8573608398438,801.0712280273438,745.84326171875,891.7017822265625
1767330481.019829,775.0503540039062,764.341064453125,746.2857666015625,814.5242309570312
1767330481.0237353,677.1622924804688,662.293212890625,709.0245971679688,578.8317260742188
1767330481.0276415,674.5956420898438,677.9588623046875,710.7062377929688,596.7100219726562
1767330480.9788694,770.0054931640625,777.6170654296875,742.6570434570312,856.8302612304688
1767330480.9827757,790.1849365234375,790.450439453125,744.9581909179688,891.0822143554688
1767330480.986682,708.051025390625,703.0061645507812,719.4683227539062,631.6700439453125
1767330480.9905882,675.9232177734375,675.3036499023438,709.732666015625,548.031494140625
1767330480.9944944,753.808837890625,756.4639892578125,732.3017578125,787.0872192382812
1767330480.9984007,803.81494140625,790.2734375,742.7455444335938,921.2628784179688
1767330481.002307,738.7627563476562,726.1063232421875,724.336181640625,710.440673828125
1767330481.0062132,678.04736328125,678.9324340820312,711.1487426757812,543.783203125
1767330481.0101194,732.9213256835938,742.7455444335938,737.0811157226562,712.5648803710938
1767330481.0140257,803.0183715820312,800.09765625,759.1192016601562,923.0330200195312
1767330481.017932,757.6146240234375,743.630615234375,736.2845458984375,810.8069458007812
1767330481.0218382,677.9588623046875,677.3392944335938,719.1143188476562,565.1132202148438
1767330481.0257444,698.3153076171875,701.944091796875,724.7787475585938,642.290771484375
1767330481.0296507,776.3779296875,773.8997802734375,739.1167602539062,902.6765747070312
1767330481.0532632,774.9618530273438,777.0859985351562,739.4707641601562,870.3717041015625
1767330481.0571694,689.3761596679688,703.2716674804688,722.4775390625,605.1181030273438
1767330481.1280515,676.4542236328125,686.366943359375,720.264892578125,582.46044921875
1767330481.1319578,761.597412109375,753.2777709960938,741.3294067382812,843.7313232421875
1767330481.135864,787.7952880859375,777.1744995117188,749.3834838867188,911.8812255859375
1767330481.1397703,710.9717407226562,709.3786010742188,725.9293212890625,667.0725708007812
1767330481.1436765,668.046142578125,678.5784301757812,716.37060546875,533.2509155273438
1767330481.1475828,731.59375,731.4166870117188,733.2753295898438,742.2144775390625
1767330481.1194088,787.706787109375,782.0423583984375,735.842041015625,925.2456665039062
1767330481.123315,741.0639038085938,748.055908203125,728.4959716796875,742.0374755859375
1767330481.1272213,670.5243530273438,681.2335815429688,721.3269653320312,527.3209838867188
1767330481.1311276,701.5015869140625,698.226806640625,724.1591796875,672.471435546875
1767330481.1350338,779.8297119140625,775.4043579101562,743.7191162109375,907.8984375
1767330481.13894,762.6594848632812,771.2445678710938,743.8076171875,808.417236328125
1767330481.1428463,679.9945068359375,688.2255859375,722.8316040039062,556.35107421875
1767330481.1467526,683.2692260742188,671.58642578125,718.8488159179688,600.6043090820312
1767330481.1506588,770.0054931640625,756.8180541992188,735.7535400390625,860.0164794921875
1767330481.154565,785.0515747070312,789.5654296875,739.0282592773438,875.1510620117188
1767330481.1584713,708.7590942382812,718.7603149414062,731.94775390625,612.7296752929688
1767330481.1623776,679.1979370117188,662.293212890625,727.0798950195312,551.3062133789062
1767330481.1139312,749.2949829101562,728.9385375976562,727.87646484375,813.1965942382812
1767330481.1178374,792.486083984375,801.1597290039062,744.0731201171875,919.4927368164062
1767330481.1217437,726.1063232421875,740.267333984375,732.478759765625,699.908447265625
1767330481.12565,667.4265747070312,660.5231323242188,709.6441650390625,548.5625610351562
1767330481.1295562,719.9993896484375,711.1487426757812,723.8936767578125,732.3902587890625
1767330481.1334624,792.0435791015625,797.7080078125,743.4535522460938,928.9629516601562
1767330481.1373687,756.6410522460938,765.7572021484375,733.5408935546875,787.8837890625
1767330481.141275,673.6220703125,669.4622192382812,714.4234619140625,565.998291015625
1767330481.1451812,690.6152954101562,683.8887939453125,722.300537109375,655.1242065429688
1767330481.1490874,772.7492065429688,776.6434936523438,742.5685424804688,898.3397216796875
1767330481.1529937,778.236572265625,791.1585083007812,750.6226196289062,848.2451171875
1767330481.1569,698.4923095703125,689.0221557617188,732.9213256835938,594.9398803710938
1767330481.1608062,672.9140014648438,651.8494873046875,717.3441772460938,597.860595703125
1767330481.1647124,752.127197265625,753.1007690429688,735.3994750976562,840.7221069335938
1767330481.2343082,787.0872192382812,802.7528686523438,746.4627685546875,902.322509765625
1767330481.2382145,711.8568115234375,714.8660278320312,727.87646484375,667.0725708007812
1767330481.2421207,659.1954956054688,655.5667724609375,713.4498901367188,546.4383544921875
1767330481.246027,725.663818359375,735.3109741210938,731.0626831054688,757.6146240234375
1767330481.2499332,791.60107421875,804.4344482421875,750.445556640625,921.0858764648438
1767330481.2538395,736.8156127929688,727.7879638671875,735.4879760742188,742.2144775390625
1767330481.2577457,664.15185546875,647.4241333007812,712.2108154296875,537.9417724609375
1767330481.261652,707.697021484375,703.7142333984375,724.336181640625,671.763427734375
1767330481.2655582,784.4320068359375,799.1240844726562,741.0639038085938,908.6950073242188
1767330481.2694645,754.5169067382812,768.412353515625,721.4154663085938,829.3047485351562
1767330481.2318513,683.0037231445312,679.72900390625,715.5740966796875,541.8360595703125
1767330481.2357576,694.2440185546875,688.2255859375,726.371826171875,570.3350830078125
1767330481.2396638,772.2181396484375,774.165283203125,736.1075439453125,858.3348388671875
1767330481.24357,787.8837890625,774.5193481445312,736.4615478515625,874.5315551757812
1767330481.2474763,706.1923828125,690.5267944335938,713.803955078125,617.0664672851562
1767330481.2513826,672.5599975585938,673.97607421875,709.6441650390625,550.3326416015625
1767330481.2552888,751.0651245117188,757.880126953125,732.3017578125,800.8942260742188
1767330481.259195,798.9470825195312,790.5390014648438,748.1444091796875,927.1928100585938
1767330481.2631013,728.4959716796875,719.1143188476562,732.3902587890625,705.0418090820312
1767330481.2670076,665.7449951171875,667.1610717773438,710.7947387695312,544.4027099609375
1767330481.2709138,719.8223876953125,737.6121826171875,729.1155395507812,723.0971069335938
1767330481.27482,790.7160034179688,798.06201171875,750.7111206054688,919.3157348632812
1767330481.2787263,745.0466918945312,743.984619140625,731.8592529296875,789.0343627929688
1767330481.2826326,664.5944213867188,673.8875732421875,714.4234619140625,556.35107421875
1767330481.2698305,693.7130126953125,700.439453125,722.7431030273438,654.5932006835938
1767330481.2737367,774.6963500976562,771.8641357421875,741.948974609375,905.4202270507812
1767330481.277643,766.022705078125,766.2882080078125,742.47998046875,851.6083984375
1767330481.2815492,686.1014404296875,687.4290161132812,719.73388671875,587.3283081054688
1767330481.2854555,674.7726440429688,682.2071533203125,715.66259765625,582.1064453125
1767330481.2893617,753.4547729492188,752.5697631835938,731.770751953125,843.996826171875
1767330481.293268,780.8032836914062,776.5549926757812,737.70068359375,895.0650024414062
1767330481.2971742,702.5636596679688,712.9188842773438,719.73388671875,645.1229858398438
1767330481.3747678,664.328857421875,686.9865112304688,721.5040283203125,530.24169921875
1767330481.378674,738.6742553710938,741.948974609375,743.2765502929688,754.6939086914062
1767330481.3825803,792.0435791015625,783.635498046875,741.594970703125,929.4054565429688
1767330481.3864865,736.373046875,737.2581176757812,726.7258911132812,728.9385375976562
1767330481.3903928,674.0645751953125,671.8519287109375,716.1051025390625,527.85205078125
1767330481.394299,717.6982421875,696.8992309570312,723.0971069335938,687.517578125
1767330481.3982053,791.2470092773438,772.306640625,736.5501098632812,907.8099365234375
1767330481.4021115,765.668701171875,767.0847778320312,731.8592529296875,793.5482177734375
1767330481.3540027,682.8267211914062,690.7922973632812,716.4591064453125,547.677490234375
1767330481.357909,691.2348022460938,686.012939453125,716.9901733398438,612.5526733398438
1767330481.3618152,778.41357421875,772.483642578125,736.01904296875,871.0797729492188
1767330481.3657215,787.2642211914062,793.1056518554688,738.5857543945312,867.53955078125
1767330481.3696277,705.9268798828125,718.4947509765625,725.5753173828125,603.2594604492188
1767330481.373534,681.3220825195312,671.0553588867188,722.8316040039062,556.174072265625
1767330481.3774402,752.6582641601562,736.8156127929688,728.4959716796875,826.384033203125
1767330481.3813465,788.8573608398438,794.6987915039062,739.6478271484375,921.7054443359375
1767330481.3852527,718.9373168945312,731.2396850585938,729.1155395507812,689.9957275390625
1767330481.389159,664.8599243164062,660.8771362304688,716.8131713867188,554.0499267578125
1767330481.3930652,721.946533203125,717.875244140625,731.59375,753.0122680664062
1767330481.3969715,789.2113647460938,801.0712280273438,745.84326171875,935.512451171875
1767330481.4008777,742.47998046875,760.6238403320312,735.7535400390625,775.846923828125
1767330481.404784,664.8599243164062,659.4609985351562,714.6890258789062,562.7235717773438
1767330481.37183,696.8107299804688,683.0037231445312,721.592529296875,673.4450073242188
1767330481.3757362,774.6078491210938,784.343505859375,744.7811889648438,914.8019409179688
1767330481.3796425,766.9077758789062,793.813720703125,750.8881225585938,843.4657592773438
1767330481.3835487,685.2163696289062,691.1463012695312,731.94775390625,579.4512329101562
1767330481.387455,668.1346435546875,658.8414916992188,716.0166015625,606.2686767578125
1767330481.3913612,752.8352661132812,766.2882080078125,736.9041137695312,859.3969116210938
1767330481.3952675,781.6883544921875,810.7184448242188,750.7996215820312,895.5960693359375
1767330481.3991737,701.2360229492188,707.1659545898438,728.23046875,649.6368408203125
1767330481.40308,661.4966430664062,651.1414184570312,711.8568115234375,547.1464233398438
1767330481.4069862,734.9569702148438,734.9569702148438,731.4166870117188,767.88134765625
1767330481.5013723,792.8401489257812,802.13330078125,747.1708374023438,910.1995849609375
1767330481.5052786,735.5765380859375,729.4695434570312,733.9833984375,720.7959594726562
1767330481.5091848,670.6128540039062,656.4517822265625,722.2120361328125,537.5877685546875
1767330481.513091,716.6361694335938,716.37060546875,730.089111328125,696.7222290039062
1767330481.5169973,797.7965087890625,806.5586547851562,751.9501953125,902.5880737304688
1767330481.5209036,771.95263671875,764.0755615234375,747.1708374023438,782.48486328125
1767330481.5248098,678.224365234375,665.1254272460938,711.768310546875,558.5637817382812
1767330481.528716,689.6417236328125,689.8187255859375,719.4683227539062,623.7044677734375
1767330481.5326223,779.2101440429688,792.3975830078125,748.23291015625,874.7085571289062
1767330481.5365286,781.1572875976562,786.5562133789062,742.7455444335938,867.4509887695312
1767330481.5404348,694.5980834960938,685.658935546875,719.6453857421875,610.7825317382812
1767330481.544341,672.117431640625,671.763427734375,712.9188842773438,563.5201416015625
1767330481.5482473,754.8709106445312,767.1732788085938,738.231689453125,814.2586669921875
1767330481.5521536,793.5482177734375,794.167724609375,750.3570556640625,919.4927368164062
1767330481.5117884,718.229248046875,715.4855346679688,728.053466796875,691.0578002929688
1767330481.5156946,659.6380615234375,663.0897827148438,717.9637451171875,550.1556396484375
1767330481.5196009,724.9557495117188,739.2052612304688,742.2144775390625,744.4271240234375
1767330481.523507,793.2826538085938,798.7700805664062,759.3847045898438,922.324951171875
1767330481.5274134,734.9569702148438,733.7178955078125,730.26611328125,775.0503540039062
1767330481.5313196,653.1770629882812,665.7449951171875,708.9360961914062,550.7752075195312
1767330481.5352259,692.8279418945312,703.3601684570312,721.6810302734375,665.1254272460938
1767330481.539132,778.8561401367188,778.3250732421875,746.2857666015625,912.5007934570312
1767330481.5430384,759.6502685546875,765.668701171875,743.3650512695312,838.3323974609375
1767330481.5469446,673.1795043945312,682.5612182617188,717.2556762695312,577.2385864257812
1767330481.5508509,675.4806518554688,676.6312866210938,717.6097412109375,597.4180297851562
1767330481.554757,760.1812744140625,756.021484375,740.5328979492188,863.7337646484375
1767330481.5379217,779.4756469726562,781.5113525390625,750.5341186523438,894.179931640625
1767330481.541828,701.76708984375,711.6798095703125,729.55810546875,641.2286987304688
1767330481.5457342,667.869140625,681.2335815429688,718.05224609375,546.6154174804688
1767330481.5496404,743.0995483398438,734.2489013671875,737.1696166992188,773.2802124023438
1767330481.5535467,790.8045043945312,784.0780029296875,738.4971923828125,922.9445190429688
1767330481.557453,730.1776123046875,743.0995483398438,721.76953125,710.7947387695312
1767330481.6400275,669.4622192382812,677.3392944335938,713.0073852539062,527.0554809570312
1767330481.6439338,718.9373168945312,707.7855224609375,723.1856079101562,705.3073120117188
1767330481.64784,795.0527954101562,786.4676513671875,740.7098999023438,918.7847290039062
1767330481.6517463,763.987060546875,775.7584228515625,733.806396484375,788.6803588867188
1767330481.6556525,684.2427978515625,697.69580078125,714.9545288085938,550.6867065429688
1767330481.6595588,700.9705200195312,688.5796508789062,718.7603149414062,635.829833984375
1767330481.6117225,783.0159301757812,766.7307739257812,738.6742553710938,892.144287109375
1767330481.6156287,784.0780029296875,781.77685546875,740.9754028320312,862.0521240234375
1767330481.619535,698.9348754882812,705.9268798828125,719.2913208007812,607.9503173828125
1767330481.6234412,674.5956420898438,675.2151489257812,707.4314575195312,600.9583129882812
1767330481.6273475,762.7479858398438,760.44677734375,746.8168334960938,817.4448852539062
1767330481.6312537,801.5137939453125,802.8413696289062,758.5881958007812,881.966064453125
1767330481.63516,718.7603149414062,723.2741088867188,720.9729614257812,669.55078125
1767330481.6390662,665.4794311523438,658.221923828125,710.7062377929688,537.67626953125
1767330481.6429725,728.3189697265625,716.6361694335938,724.8672485351562,748.409912109375
1767330481.6468787,791.4240112304688,796.203369140625,739.913330078125,921.0858764648438
1767330481.650785,741.5064697265625,757.703125,734.5144653320312,745.2236938476562
1767330481.6546912,668.3116455078125,664.8599243164062,718.3177490234375,540.6854858398438
1767330481.6585975,697.1647338867188,690.084228515625,725.9293212890625,666.2760009765625
1767330481.6625037,772.5722045898438,785.1400756835938,739.2937622070312,899.2247924804688
1767330481.621617,757.4375610351562,786.9102172851562,742.47998046875,812.6655883789062
1767330481.6255233,675.834716796875,686.2784423828125,728.6730346679688,557.9442138671875
1767330481.6294296,668.7542114257812,660.7886352539062,713.0958862304688,606.0916748046875
1767330481.6333358,750.9766235351562,759.3847045898438,738.1431884765625,862.0521240234375
1767330481.637242,772.5722045898438,795.67236328125,743.5421142578125,881.2579956054688
1767330481.6411483,696.4566650390625,699.6429443359375,723.4511108398438,635.4757690429688
1767330481.6450546,666.9840698242188,657.0713500976562,719.2913208007812,556.7936401367188
1767330481.6489608,740.267333984375,742.6570434570312,732.8328247070312,784.8745727539062
1767330481.652867,788.5918579101562,800.8057250976562,748.23291015625,906.1282958984375
1767330481.6567733,726.9913940429688,723.0086059570312,731.4166870117188,703.802734375
1767330481.6606796,664.4173583984375,651.583984375,711.9453125,536.7026977539062
1767330481.6645858,715.3085327148438,716.2821044921875,721.1499633789062,713.0073852539062
1767330481.7430248,793.2826538085938,815.4092407226562,746.1087646484375,914.359375
1767330481.746931,762.482421875,766.9962768554688,750.0030517578125,776.200927734375
1767330481.7508373,680.260009765625,659.2839965820312,716.193603515625,565.3787231445312
1767330481.7547436,696.9877319335938,691.3233032226562,712.5648803710938,649.0172729492188
1767330481.7586498,780.0067138671875,791.2470092773438,740.8869018554688,891.4362182617188
1767330481.762556,777.882568359375,777.0859985351562,744.7811889648438,864.7958374023438
1767330481.742441,692.3853759765625,680.3485107421875,724.9557495117188,605.3836059570312
1767330481.7463472,674.9496459960938,667.9576416015625,721.5040283203125,578.4776611328125
1767330481.7502534,755.4904174804688,764.2525634765625,742.3914794921875,829.4817504882812
1767330481.7541597,786.5562133789062,789.1228637695312,743.630615234375,907.0133666992188
1767330481.758066,709.2015991210938,705.83837890625,723.8936767578125,667.6036376953125
1767330481.7619722,662.2047119140625,662.8242797851562,716.0166015625,545.3762817382812
1767330481.7658784,731.1511840820312,743.4535522460938,738.0546875,749.3834838867188
1767330481.7697847,798.5930786132812,800.09765625,765.3146362304688,913.2088012695312
1767330481.773691,739.3822631835938,730.6201782226562,739.0282592773438,756.9950561523438
1767330481.7775972,661.3196411132812,670.3472900390625,708.22802734375,548.9165649414062
1767330481.7293978,704.333740234375,720.1763916015625,722.12353515625,674.5071411132812
1767330481.733304,788.1492919921875,789.1228637695312,744.8696899414062,913.2088012695312
1767330481.7372103,766.9962768554688,757.7916259765625,738.0546875,823.8173828125
1767330481.7411165,679.1094360351562,675.7462158203125,718.05224609375,565.1132202148438
1767330481.7450228,682.11865234375,696.6337280273438,720.1763916015625,597.9490966796875
1767330481.748929,768.1468505859375,775.4043579101562,737.877685546875,859.8394775390625
1767330481.7528353,780.5377807617188,782.2193603515625,742.6570434570312,873.646484375
1767330481.7567415,696.5452270507812,708.22802734375,723.80517578125,612.8181762695312
1767330481.7606478,665.2139282226562,685.1278686523438,723.5396728515625,536.8796997070312
1767330481.764554,747.6134033203125,744.4271240234375,745.7547607421875,776.2894287109375
1767330481.7684603,795.67236328125,774.2537841796875,744.7811889648438,917.8111572265625
1767330481.7723665,724.8672485351562,726.2833251953125,723.982177734375,698.3153076171875
1767330481.7762728,663.0012817382812,677.2507934570312,707.7855224609375,523.4266967773438
1767330481.780179,719.4683227539062,710.7947387695312,722.2120361328125,715.4855346679688
1767330481.8033943,791.8665771484375,777.7940673828125,743.0995483398438,920.8203735351562
1767330481.8073006,751.0651245117188,750.7996215820312,736.1075439453125,775.9354248046875
1767330481.855,669.4622192382812,681.3220825195312,719.4683227539062,547.50048828125
1767330481.8589063,691.3233032226562,693.8900146484375,723.8936767578125,650.9644165039062
1767330481.8628125,775.0503540039062,771.3330688476562,745.666259765625,900.8179321289062
1767330481.8667188,769.2089233398438,775.846923828125,744.7811889648438,857.2727661132812
1767330481.870625,689.2876586914062,701.8555908203125,729.735107421875,592.1961669921875
1767330481.8745313,684.4197998046875,676.8082885742188,727.7879638671875,574.0523681640625
1767330481.8784375,763.8985595703125,742.8340454101562,734.6914672851562,853.4669799804688
1767330481.8823438,792.486083984375,781.2457885742188,740.6213989257812,919.4042358398438
1767330481.884323,718.9373168945312,715.9281005859375,725.7523193359375,662.2047119140625
1767330481.8882291,675.2151489257812,662.0277099609375,719.2028198242188,554.5809936523438
1767330481.8921354,739.0282592773438,723.982177734375,730.8856811523438,769.2974243164062
1767330481.8960416,794.8757934570312,793.813720703125,739.2937622070312,916.1295166015625
1767330481.899948,744.2501220703125,748.1444091796875,731.1511840820312,730.089111328125
1767330481.9038541,676.6312866210938,656.4517822265625,715.0430297851562,540.5969848632812
1767330481.9077604,716.37060546875,692.0313720703125,722.5661010742188,686.1014404296875
1767330481.9116666,786.6447143554688,784.2550048828125,742.47998046875,913.3858032226562
1767330481.915573,761.2433471679688,777.9710693359375,748.3214111328125,810.7184448242188
1767330481.9194791,682.6497192382812,686.5440063476562,734.6914672851562,557.1476440429688
1767330481.9233854,679.1979370117188,666.4530029296875,715.1315307617188,619.2791137695312
1767330481.9272916,761.8629150390625,764.0755615234375,733.1868286132812,875.9476318359375
1767330481.8867524,778.9446411132812,789.5654296875,743.0110473632812,871.8763427734375
1767330481.8906586,699.2888793945312,689.55322265625,720.3533935546875,619.1906127929688
1767330481.8945649,669.4622192382812,654.150634765625,711.8568115234375,559.1832885742188
1767330481.898471,743.630615234375,745.2236938476562,729.8236083984375,797.6195068359375
1767330481.9023774,790.5390014648438,803.637939453125,745.666259765625,905.0662231445312
1767330481.9062836,721.592529296875,724.9557495117188,730.6201782226562,690.5267944335938
1767330481.9101899,661.939208984375,653.61962890625,711.2372436523438,535.640625
1767330481.914096,721.8580322265625,718.3177490234375,725.663818359375,725.3097534179688
1767330481.9180024,794.2562255859375,812.3115234375,751.2421264648438,913.7398681640625
1767330481.9219086,755.4019165039062,759.3847045898438,741.3294067382812,758.5881958007812
1767330481.9258149,668.8427124023438,652.6460571289062,703.0946655273438,552.0142822265625
1767330481.929721,691.6773681640625,682.7382202148438,707.4314575195312,652.5575561523438
1767330481.9817665,781.0687866210938,782.8389282226562,739.559326171875,890.5512084960938
1767330481.9856727,769.1204223632812,771.5986328125,742.0374755859375,846.7405395507812
1767330481.989579,678.4898681640625,677.4277954101562,713.0958862304688,590.3375244140625
1767330481.9934852,678.7554321289062,680.9680786132812,714.4234619140625,571.92822265625
1767330481.9973915,768.2353515625,776.4664306640625,741.4179077148438,832.136962890625
1767330482.0012977,788.060791015625,790.3619384765625,741.8604736328125,905.2432250976562
1767330482.005204,711.2372436523438,706.1038818359375,721.1499633789062,654.6817016601562
1767330482.0091102,670.7013549804688,662.9127807617188,706.7234497070312,545.641845703125
1767330482.0130165,740.1788330078125,747.52490234375,728.5845336914062,761.6859130859375
1767330482.0169227,796.1148681640625,800.3631591796875,756.5525512695312,904.8892211914062
1767330481.9820454,725.3097534179688,719.3798217773438,731.8592529296875,724.6902465820312
1767330481.9859517,654.2391357421875,656.7173461914062,709.5556640625,533.2509155273438
1767330481.989858,701.2360229492188,712.9188842773438,727.87646484375,680.7910766601562
1767330481.9937642,776.02392578125,778.41357421875,744.0731201171875,911.4386596679688
1767330481.9976704,751.4191284179688,747.7904052734375,735.3994750976562,807.709228515625
1767330482.0015767,668.7542114257812,673.97607421875,716.5476684570312,558.5637817382812
1767330482.005483,681.941650390625,686.6325073242188,718.3177490234375,613.791748046875
1767330482.0093892,773.1917114257812,763.81005859375,743.7191162109375,881.966064453125
1767330482.0132954,777.7940673828125,775.2273559570312,749.6490478515625,882.14306640625
1767330482.0172017,687.87158203125,694.5095825195312,718.5833129882812,617.3319702148438
1767330482.021108,668.1346435546875,684.5968627929688,713.1843872070312,558.9177856445312
1767330482.0250142,755.4904174804688,761.8629150390625,747.0823364257812,803.1068725585938
1767330482.0289204,791.5125732421875,780.1837158203125,749.2949829101562,927.6353759765625
1767330482.0328267,723.1856079101562,718.7603149414062,726.9913940429688,701.3245239257812
1767330482.0198119,675.9232177734375,679.9945068359375,716.9016723632812,541.3049926757812
1767330482.023718,731.6822509765625,726.6373901367188,726.9028930664062,746.6398315429688
1767330482.0276244,796.1148681640625,782.48486328125,746.6398315429688,936.5745239257812
1767330482.0315306,754.9594116210938,750.1800537109375,735.7535400390625,774.165283203125
1767330482.0354369,681.587646484375,689.9072265625,713.3613891601562,549.713134765625
1767330482.039343,710.7062377929688,710.8832397460938,725.2212524414062,667.869140625
1767330482.0432494,791.8665771484375,791.778076171875,749.560546875,911.0846557617188
1767330482.0471556,778.236572265625,782.3963623046875,742.2144775390625,845.1473999023438
1767330482.101976,697.1647338867188,705.4843139648438,724.7787475585938,582.3719482421875
1767330482.1058822,694.2440185546875,688.3140869140625,729.3810424804688,581.575439453125
1767330482.1097884,767.52734375,749.8260498046875,735.1339721679688,856.5647583007812
1767330482.1136947,788.7688598632812,788.5033569335938,731.5052490234375,900.9949340820312
1767330482.117601,716.5476684570312,727.0798950195312,718.229248046875,641.4057006835938
1767330482.1215072,675.0381469726562,670.7898559570312,712.0338134765625,550.9522094726562
1767330482.1254134,741.77197265625,728.053466796875,731.1511840820312,780.6262817382812
1767330482.1293197,796.4688720703125,792.3975830078125,743.630615234375,921.4398803710938
1767330482.133226,733.62939453125,745.4006958007812,728.7615356445312,719.1143188476562
1767330482.1371322,662.6472778320312,666.5415649414062,715.2200317382812,539.3578491210938
1767330482.1094694,708.4935302734375,707.0774536132812,729.3810424804688,703.0061645507812
1767330482.1133757,781.953857421875,797.4424438476562,744.7811889648438,915.9525146484375
1767330482.117282,755.3134155273438,783.989501953125,739.2937622070312,794.0792236328125
1767330482.1211882,676.8967895507812,687.87158203125,728.9385375976562,545.9073486328125
1767330482.1250944,681.2335815429688,673.97607421875,715.9281005859375,624.9435424804688
1767330482.1290007,763.2789916992188,767.1732788085938,728.9385375976562,878.8683471679688
1767330482.132907,775.669921875,791.3355102539062,738.6742553710938,856.4761962890625
1767330482.1368132,696.1026611328125,699.6429443359375,718.5833129882812,608.392822265625
1767330482.1407194,674.2415771484375,661.1426391601562,715.5740966796875,569.2730102539062
1767330482.1446257,756.021484375,750.6226196289062,735.6650390625,811.4264526367188
1767330482.148532,795.0527954101562,812.134521484375,741.1524047851562,903.1190795898438
1767330482.1524382,722.8316040039062,725.4867553710938,723.5396728515625,681.4105834960938
1767330482.1318543,667.51513671875,650.8759155273438,709.732666015625,543.606201171875
1767330482.1357605,726.19482421875,723.0971069335938,721.1499633789062,740.6213989257812
1767330482.1396668,796.38037109375,817.6219482421875,745.84326171875,920.289306640625
1767330482.143573,756.198486328125,764.1640625,749.6490478515625,752.127197265625
1767330482.1474793,672.0289306640625,655.9207763671875,717.6982421875,550.244140625
1767330482.1513855,695.7486572265625,691.0578002929688,715.3085327148438,666.8070678710938
1767330482.1552918,782.130859375,793.1941528320312,746.197265625,896.7466430664062
1767330482.159198,767.1732788085938,768.5894165039062,746.4627685546875,837.535888671875
1767330482.1631043,678.4898681640625,668.8427124023438,716.2821044921875,581.3983764648438
1767330482.1670105,679.4634399414062,669.727783203125,712.122314453125,591.4880981445312
1767330482.2666204,766.9077758789062,772.8377075195312,737.523681640625,849.3956909179688
1767330482.2705266,783.635498046875,789.5654296875,743.984619140625,893.2063598632812
1767330482.274433,705.5728759765625,703.2716674804688,725.4867553710938,644.326416015625
1767330482.2783391,669.1082153320312,675.3036499023438,721.3269653320312,552.9878540039062
1767330482.2822454,739.4707641601562,759.1192016601562,743.630615234375,779.3871459960938
1767330482.2861516,797.531005859375,805.8505859375,760.0927734375,909.4030151367188
1767330482.290058,736.01904296875,725.9293212890625,734.6029663085938,726.4603271484375
1767330482.2939641,666.4530029296875,659.903564453125,713.0073852539062,545.2877807617188
1767330482.2978704,716.8131713867188,719.2913208007812,727.9649658203125,701.6785888671875
1767330482.3017766,796.9999389648438,791.6895751953125,741.594970703125,924.4490966796875
1767330482.305683,761.6859130859375,751.1536254882812,734.0718994140625,800.0091552734375
1767330482.3095891,675.7462158203125,668.8427124023438,718.4947509765625,552.27978515625
1767330482.3134954,695.0405883789062,699.0233764648438,725.1327514648438,622.111328125
1767330482.3174016,778.7676391601562,777.528564453125,746.5513305664062,883.4706420898438
1767330482.268664,781.5113525390625,770.27099609375,748.9409790039062,867.6280517578125
1767330482.2725701,698.226806640625,693.0934448242188,722.4775390625,609.1008911132812
1767330482.2764764,671.0553588867188,685.1278686523438,713.803955078125,569.53857421875
1767330482.2803826,756.6410522460938,760.8008422851562,746.020263671875,814.0816650390625
1767330482.284289,792.3975830078125,776.3779296875,746.5513305664062,921.970947265625
1767330482.2881951,711.59130859375,713.0958862304688,724.7787475585938,692.0313720703125
1767330482.2921014,658.39892578125,676.188720703125,716.1051025390625,540.8624877929688
1767330482.2960076,719.556884765625,723.7166748046875,728.053466796875,750.1800537109375
1767330482.299914,783.8125,780.9802856445312,744.6926879882812,930.3790283203125
1767330482.3038201,732.9213256835938,740.3558349609375,730.5316772460938,752.0386962890625
1767330482.3077264,659.9920654296875,671.8519287109375,713.5384521484375,531.92333984375
1767330482.3116326,695.3060913085938,697.518798828125,723.0971069335938,662.0277099609375
1767330482.315539,773.1032104492188,778.1480712890625,744.16162109375,900.8179321289062
1767330482.3194451,755.2249145507812,767.0847778320312,738.4971923828125,823.0208129882812
1767330482.3102515,674.4185791015625,688.402587890625,716.37060546875,564.9362182617188
1767330482.3141577,684.4197998046875,683.7117919921875,727.6109619140625,582.9915161132812
1767330482.318064,765.5802001953125,753.0122680664062,738.5857543945312,861.609619140625
1767330482.3219702,775.7584228515625,778.9446411132812,737.9661865234375,892.8523559570312
1767330482.380481,696.191162109375,709.90966796875,727.1683959960938,628.5723266601562
1767330482.3843873,661.6737060546875,660.08056640625,717.6097412109375,552.27978515625
1767330482.3882935,736.9926147460938,725.663818359375,732.9213256835938,788.8573608398438
1767330482.3921998,788.9458618164062,784.9630737304688,741.5064697265625,912.6777954101562
1767330482.3565161,729.2925415039062,738.9397583007812,728.7615356445312,700.1739501953125
1767330482.3604224,667.2495727539062,666.8070678710938,715.1315307617188,533.958984375
1767330482.3643286,718.40625,701.76708984375,723.7166748046875,707.697021484375
1767330482.3682349,793.99072265625,784.343505859375,743.1880493164062,912.9432983398438
1767330482.3721411,759.4732055664062,769.9169921875,742.1259765625,784.6975708007812
1767330482.3760474,684.9508666992188,686.18994140625,732.124755859375,538.38427734375
1767330482.3799536,696.01416015625,683.623291015625,723.982177734375,636.36083984375
1767330482.3838599,773.811279296875,776.200927734375,735.5765380859375,897.2776489257812
1767330482.3877661,775.7584228515625,795.2297973632812,743.5421142578125,854.4405517578125
1767330482.3916724,687.4290161132812,692.119873046875,723.80517578125,600.9583129882812
1767330482.3955786,670.6128540039062,655.3897094726562,716.1051025390625,581.3983764648438
1767330482.3994849,754.7824096679688,747.52490234375,736.6386108398438,833.9071044921875
1767330482.4033911,792.6631469726562,800.274658203125,749.3834838867188,907.54443359375
1767330482.4072974,719.556884765625,720.5304565429688,731.94775390625,673.2680053710938
1767330482.3718135,668.400146484375,662.0277099609375,721.0614624023438,548.5625610351562
1767330482.3757198,731.59375,733.8948974609375,733.1868286132812,756.1099853515625
1767330482.379626,793.3711547851562,815.7633056640625,748.409912109375,920.6433715820312
1767330482.3835323,746.8168334960938,759.2077026367188,747.4363403320312,731.94775390625
1767330482.3874385,666.7185668945312,650.1678466796875,718.6718139648438,539.8004150390625
1767330482.3913448,699.2003784179688,686.5440063476562,718.05224609375,675.5692138671875
1767330482.395251,784.9630737304688,798.416015625,742.9225463867188,895.9500732421875
1767330482.3991573,762.6594848632812,773.3687133789062,736.7271118164062,818.7725219726562
1767330482.4030635,674.8611450195312,666.364501953125,714.9545288085938,571.751220703125
1767330482.4069698,675.3921508789062,668.5772094726562,717.6097412109375,601.577880859375
1767330482.410876,765.2261352539062,772.8377075195312,740.267333984375,859.927978515625
1767330482.4147823,785.4940795898438,786.9987182617188,746.4627685546875,887.3649291992188
1767330482.4186885,697.1647338867188,691.8543701171875,726.5488891601562,632.9976196289062
1767330482.4225948,661.1426391601562,660.5231323242188,715.2200317382812,555.0234985351562
1767330482.4929638,736.9041137695312,751.9501953125,735.6650390625,788.3262939453125
1767330482.49687,791.4240112304688,801.956298828125,758.7651977539062,905.3317260742188
1767330482.5007763,724.4246826171875,714.6890258789062,735.2224731445312,711.4142456054688
1767330482.5046825,654.8587036132812,647.9552001953125,709.8211669921875,546.1728515625
1767330482.5085888,712.0338134765625,720.1763916015625,729.8236083984375,712.9188842773438
1767330482.512495,787.1757202148438,799.4780883789062,748.9409790039062,923.9180908203125
1767330482.4767258,743.630615234375,750.091552734375,732.6558227539062,784.6975708007812
1767330482.480632,665.1254272460938,670.7013549804688,716.9016723632812,549.3590698242188
1767330482.4845383,692.3853759765625,705.5728759765625,730.089111328125,636.6264038085938
1767330482.4884446,771.8641357421875,779.2101440429688,744.16162109375,884.9752807617188
1767330482.4923508,766.1112060546875,763.2789916992188,737.70068359375,848.7761840820312
1767330482.496257,685.4818725585938,680.5255737304688,718.40625,589.718017578125
1767330482.5001633,672.0289306640625,672.7369995117188,718.6718139648438,568.8305053710938
1767330482.5040696,757.9686279296875,758.5881958007812,751.3306274414062,816.9138793945312
1767330482.5079758,787.6182861328125,782.6619262695312,750.5341186523438,905.5087890625
1767330482.511882,706.6349487304688,709.90966796875,718.8488159179688,668.3116455078125
1767330482.5157883,666.6300659179688,680.43701171875,716.37060546875,540.419921875
1767330482.5196946,736.2845458984375,742.7455444335938,733.3638305664062,760.8893432617188
1767330482.5236008,792.7516479492188,795.67236328125,744.4271240234375,921.616943359375
1767330482.527507,740.267333984375,747.2593383789062,736.1075439453125,736.373046875
1767330482.4868507,676.01171875,684.0657958984375,722.3890380859375,535.1980590820312
1767330482.490757,710.263671875,708.1395263671875,725.2212524414062,679.906005859375
1767330482.4946632,783.5469970703125,773.63427734375,740.1788330078125,908.7835083007812
1767330482.4985695,762.12841796875,757.703125,735.3109741210938,811.4264526367188
1767330482.5024757,675.65771484375,691.6773681640625,713.5384521484375,559.9798583984375
1767330482.506382,685.5704345703125,697.7843017578125,726.9028930664062,591.753662109375
1767330482.5102882,768.9434204101562,763.1904907226562,741.5064697265625,868.9556274414062
1767330482.5141945,780.0067138671875,783.7239990234375,736.9041137695312,889.3120727539062
1767330482.5181007,701.8555908203125,719.73388671875,726.017822265625,621.4917602539062
1767330482.522007,670.8783569335938,677.693359375,719.4683227539062,564.0511474609375
1767330482.5259132,744.9581909179688,739.559326171875,730.0006103515625,807.3551635742188
1767330482.5298195,791.3355102539062,791.3355102539062,739.3822631835938,914.0938720703125
1767330482.5985382,677.9588623046875,663.8863525390625,711.4142456054688,591.3110961914062
1767330482.6024444,759.8272705078125,756.4639892578125,734.6029663085938,840.7221069335938
1767330482.6063507,786.2021484375,800.45166015625,742.3914794921875,891.5247802734375
1767330482.610257,713.98095703125,714.7775268554688,726.8143920898438,657.2483520507812
