timestamp,tp9,af7,af8,tp10
1767330520.0240102,738.231689453125,742.7455444335938,732.2132568359375,724.9557495117188
1767330520.0227673,721.592529296875,729.8236083984375,733.4523315429688,669.9932861328125
1767330520.0266736,671.0553588867188,667.51513671875,726.4603271484375,531.3922729492188
1767330520.0211983,771.4215698242188,764.6951293945312,735.0454711914062,855.502685546875
1767330520.0251045,793.4596557617188,809.1253051757812,745.666259765625,881.966064453125
1767330520.0290108,713.7154541015625,723.80517578125,734.8684692382812,631.4929809570312
1767330520.1194742,670.9668579101562,660.6116333007812,715.3970336914062,567.85693359375
1767330520.1233804,741.6834716796875,736.196044921875,729.6466064453125,790.6275024414062
1767330520.1272867,794.6987915039062,803.0183715820312,749.3834838867188,906.8363647460938
1767330520.131193,726.7258911132812,730.089111328125,727.2568969726562,708.3165283203125
1767330520.1350992,656.36328125,658.8414916992188,705.4843139648438,534.0474853515625
1767330520.1390054,708.5820922851562,710.7947387695312,722.8316040039062,694.4210205078125
1767330520.1429117,786.379150390625,793.2826538085938,745.84326171875,896.7466430664062
1767330520.146818,750.091552734375,759.3847045898438,734.9569702148438,782.8389282226562
1767330520.1189578,664.5059204101562,668.4886474609375,715.3970336914062,555.5545654296875
1767330520.122864,682.6497192382812,687.7830810546875,718.9373168945312,626.9791870117188
1767330520.1267703,771.5986328125,788.7688598632812,743.1880493164062,863.0256958007812
1767330520.1306765,773.98828125,783.4584350585938,749.0294799804688,826.20703125
1767330520.1345828,683.2692260742188,678.7554321289062,713.803955078125,593.8778076171875
1767330520.138489,664.15185546875,661.939208984375,707.7855224609375,568.9190063476562
1767330520.1423953,751.6846923828125,751.59619140625,733.0983276367188,806.5586547851562
1767330520.1463015,788.7688598632812,784.9630737304688,740.7984008789062,894.2684326171875
1767330520.1502078,716.193603515625,714.8660278320312,724.9557495117188,669.2852172851562
1767330520.154114,667.1610717773438,667.692138671875,715.5740966796875,539.7119140625
1767330520.1580203,734.160400390625,737.0811157226562,733.5408935546875,737.0811157226562
1767330520.1619265,802.5758666992188,794.167724609375,750.2685546875,916.3065185546875
1767330520.13338,750.1800537109375,741.1524047851562,734.8684692382812,758.8536987304688
1767330520.1372862,671.763427734375,671.0553588867188,714.0694580078125,554.7579956054688
1767330520.1411924,711.59130859375,717.6982421875,731.3281860351562,676.4542236328125
1767330520.1450987,794.2562255859375,791.6895751953125,749.2949829101562,899.578857421875
1767330520.149005,770.27099609375,752.9237670898438,728.407470703125,840.8991088867188
1767330520.1529112,683.80029296875,675.1266479492188,712.3878173828125,601.3123168945312
1767330520.1568174,687.3405151367188,688.2255859375,720.1763916015625,620.6952514648438
1767330520.1607237,774.165283203125,764.4295654296875,743.3650512695312,872.2303466796875
1767330520.16463,790.1849365234375,780.0067138671875,749.8260498046875,893.9144287109375
1767330520.1685362,712.8303833007812,710.8832397460938,730.5316772460938,648.3092041015625
1767330520.1724424,677.7818603515625,682.6497192382812,720.087890625,570.423583984375
1767330520.1763487,744.9581909179688,742.0374755859375,731.770751953125,798.6815795898438
1767330520.2622442,794.3447265625,783.7239990234375,741.6834716796875,917.3685913085938
1767330520.2661505,731.1511840820312,731.59375,729.735107421875,712.7418823242188
1767330520.2700567,668.7542114257812,686.7210083007812,720.44189453125,543.0751342773438
1767330520.273963,723.1856079101562,719.73388671875,736.8156127929688,698.8463745117188
1767330520.2778692,796.4688720703125,773.2802124023438,740.3558349609375,913.2088012695312
1767330520.2817755,757.0835571289062,757.526123046875,731.4166870117188,787.8837890625
1767330520.232973,675.4806518554688,693.1819458007812,720.264892578125,552.27978515625
1767330520.2368793,695.1290893554688,698.7578735351562,719.556884765625,640.5206909179688
1767330520.2407856,774.2537841796875,770.9790649414062,737.1696166992188,877.4522094726562
1767330520.2446918,769.2974243164062,776.4664306640625,734.6029663085938,833.99560546875
1767330520.248598,690.438232421875,710.7062377929688,720.3533935546875,583.6995849609375
1767330520.2525043,678.6669311523438,680.43701171875,716.1051025390625,571.3971557617188
1767330520.2564106,759.3847045898438,741.2409057617188,727.87646484375,813.2850952148438
1767330520.2603168,789.0343627929688,782.130859375,733.0983276367188,881.1694946289062
1767330520.264223,714.2464599609375,724.2476806640625,722.6546020507812,647.5126953125
1767330520.2681293,673.3565063476562,667.6036376953125,726.7258911132812,528.8256225585938
1767330520.2720356,739.0282592773438,717.7867431640625,734.6914672851562,760.9778442382812
1767330520.2759418,795.67236328125,793.2826538085938,739.0282592773438,924.4490966796875
1767330520.279848,742.2144775390625,751.4191284179688,729.2040405273438,742.3914794921875
1767330520.2837543,674.7726440429688,667.2495727539062,711.9453125,559.8028564453125
1767330520.2436438,713.4498901367188,699.9969482421875,722.6546020507812,696.191162109375
1767330520.24755,790.2734375,784.0780029296875,738.5857543945312,912.5892944335938
1767330520.2514563,768.5894165039062,768.8549194335938,735.2224731445312,822.1357421875
1767330520.2553625,680.7025756835938,679.2864379882812,720.3533935546875,587.7708740234375
1767330520.2592688,680.0830078125,672.0289306640625,720.3533935546875,624.9435424804688
1767330520.263175,768.2353515625,757.2605590820312,738.7627563476562,872.0533447265625
1767330520.2670813,784.7860717773438,798.1505126953125,744.6041870117188,880.1959228515625
1767330520.2709875,703.2716674804688,716.5476684570312,737.70068359375,628.041259765625
1767330520.2748938,664.15185546875,652.114990234375,714.6005249023438,580.247802734375
1767330520.2788,738.7627563476562,731.1511840820312,720.44189453125,810.5414428710938
1767330520.2827063,792.9286499023438,801.0712280273438,742.6570434570312,912.4122314453125
1767330520.2866125,726.8143920898438,725.7523193359375,728.3189697265625,709.9981689453125
1767330520.351022,665.3909301757812,648.220703125,710.1751708984375,555.5545654296875
1767330520.3549283,718.05224609375,710.6177368164062,721.2384643554688,726.4603271484375
1767330520.3588345,790.8930053710938,800.0091552734375,746.9938354492188,914.5364379882812
1767330520.3627408,751.773193359375,754.8709106445312,744.6926879882812,782.307861328125
1767330520.366647,664.6829223632812,664.8599243164062,715.4855346679688,562.8120727539062
1767330520.3705533,687.7830810546875,687.4290161132812,717.875244140625,642.290771484375
1767330520.3744595,776.5549926757812,783.635498046875,744.4271240234375,881.3464965820312
1767330520.3783658,768.6779174804688,781.3342895507812,736.5501098632812,859.8394775390625
1767330520.382272,680.7025756835938,689.730224609375,712.7418823242188,611.4020385742188
1767330520.3861783,674.8611450195312,683.0037231445312,728.407470703125,563.2545776367188
1767330520.351226,760.7123413085938,764.0755615234375,749.2064819335938,805.1425170898438
1767330520.3551323,783.5469970703125,781.599853515625,741.0639038085938,898.3397216796875
1767330520.3590386,706.1923828125,705.0418090820312,725.8408203125,663.0012817382812
1767330520.3629448,661.3196411132812,661.3196411132812,714.0694580078125,544.9337768554688
1767330520.366851,733.7178955078125,742.6570434570312,728.407470703125,752.3927001953125
1767330520.3707573,796.8229370117188,800.8942260742188,742.1259765625,914.9789428710938
1767330520.3746636,740.8869018554688,733.9833984375,733.806396484375,740.7984008789062
1767330520.3785698,666.5415649414062,665.4794311523438,713.8924560546875,545.7303466796875
1767330520.382476,705.7498779296875,713.98095703125,717.4326782226562,675.2151489257812
1767330520.3863823,792.0435791015625,786.9987182617188,749.3834838867188,884.355712890625
1767330520.3902886,765.5802001953125,751.59619140625,735.2224731445312,810.5414428710938
1767330520.3941948,681.3220825195312,675.3921508789062,705.9268798828125,579.4512329101562
1767330520.398101,691.94287109375,697.69580078125,717.4326782226562,618.39404296875
1767330520.4020073,776.4664306640625,773.7227783203125,737.0811157226562,872.2303466796875
1767330520.3889885,785.4055786132812,777.6170654296875,738.1431884765625,880.9924926757812
1767330520.3928947,703.0061645507812,704.0682373046875,722.4775390625,633.3516235351562
1767330520.396801,676.2772216796875,682.11865234375,719.9993896484375,573.3442993164062
1767330520.4007072,753.4547729492188,744.9581909179688,738.1431884765625,814.5242309570312
1767330520.4046135,798.5930786132812,787.9722900390625,743.8076171875,922.9445190429688
1767330520.4085197,720.5304565429688,730.8856811523438,728.5845336914062,696.6337280273438
1767330520.412426,654.0621337890625,683.7117919921875,720.7959594726562,532.0118408203125
1767330520.4163322,717.0786743164062,735.842041015625,743.3650512695312,709.3786010742188
1767330520.5173767,781.6883544921875,781.2457885742188,748.3214111328125,915.4214477539062
1767330520.521283,737.1696166992188,743.4535522460938,731.5052490234375,774.0767822265625
1767330520.4936812,662.5587768554688,687.2520141601562,718.7603149414062,544.314208984375
1767330520.4975874,683.7117919921875,700.3509521484375,720.7074584960938,641.2286987304688
1767330520.5014937,766.8192749023438,769.2974243164062,744.9581909179688,876.8327026367188
1767330520.5054,761.4203491210938,768.7664184570312,742.9225463867188,827.8001708984375
1767330520.5093062,677.3392944335938,692.5624389648438,720.087890625,579.716796875
1767330520.5132124,670.9668579101562,673.0910034179688,718.229248046875,583.7880859375
1767330520.5171187,760.6238403320312,750.2685546875,739.913330078125,833.9071044921875
1767330520.521025,790.0079345703125,789.2998657226562,748.5869750976562,886.9224243164062
1767330520.5249312,715.9281005859375,731.4166870117188,736.373046875,650.25634765625
1767330520.5288374,678.5784301757812,682.2071533203125,735.9305419921875,539.0038452148438
1767330520.5327437,743.8961181640625,720.3533935546875,735.2224731445312,772.9262084960938
1767330520.53665,799.74365234375,784.0780029296875,739.3822631835938,930.2020263671875
1767330520.4878109,740.7098999023438,749.6490478515625,738.7627563476562,737.6121826171875
1767330520.491717,675.5692138671875,672.9140014648438,724.0706787109375,564.5822143554688
1767330520.4956234,717.4326782226562,701.76708984375,729.4695434570312,712.7418823242188
1767330520.4995296,789.2113647460938,786.8217163085938,749.737548828125,921.1743774414062
1767330520.5034359,768.2353515625,782.9274291992188,747.3478393554688,818.8610229492188
1767330520.507342,683.0037231445312,688.6681518554688,725.663818359375,585.0271606445312
1767330520.5112484,687.4290161132812,676.8082885742188,721.6810302734375,636.4493408203125
1767330520.5151546,773.5457763671875,764.6066284179688,739.4707641601562,879.6649169921875
1767330520.5190609,779.0331420898438,796.7344360351562,745.1351928710938,871.4337768554688
1767330520.522967,697.4302368164062,715.9281005859375,730.0006103515625,610.25146484375
1767330520.5268734,665.9219970703125,660.3460693359375,715.3085327148438,575.7340087890625
1767330520.5307796,737.3466186523438,738.9397583007812,730.3546142578125,817.887451171875
1767330520.5346859,784.343505859375,803.3723754882812,748.23291015625,903.9156494140625
1767330520.538592,718.5833129882812,727.6109619140625,738.1431884765625,693.3589477539062
1767330520.5393677,659.9920654296875,654.5932006835938,720.7959594726562,545.9073486328125
1767330520.543274,716.8131713867188,720.264892578125,730.443115234375,725.0442504882812
1767330520.5471802,787.3527221679688,807.1781616210938,746.9938354492188,904.18115234375
1767330520.5510864,745.1351928710938,755.844482421875,736.4615478515625,759.3847045898438
1767330520.5928059,666.0989990234375,664.7714233398438,716.4591064453125,550.067138671875
1767330520.596712,697.872802734375,691.2348022460938,719.2028198242188,653.0000610351562
1767330520.6006184,783.5469970703125,785.671142578125,743.0110473632812,880.7269897460938
1767330520.6045246,775.1388549804688,779.0331420898438,753.98583984375,812.8425903320312
1767330520.6084309,691.2348022460938,678.4013671875,725.9293212890625,586.177734375
1767330520.612337,680.7910766601562,672.8255004882812,714.6890258789062,600.6043090820312
1767330520.6162434,768.8549194335938,772.3951416015625,741.1524047851562,834.5266723632812
1767330520.6201496,795.5838623046875,790.8930053710938,743.1880493164062,885.9488525390625
1767330520.6240559,711.6798095703125,695.66015625,720.087890625,650.7874145507812
1767330520.627962,670.9668579101562,654.2391357421875,710.7947387695312,553.1648559570312
1767330520.6318684,741.1524047851562,738.40869140625,727.6109619140625,768.9434204101562
1767330520.6357746,796.7344360351562,793.4596557617188,741.594970703125,916.1295166015625
1767330520.6396809,739.0282592773438,728.9385375976562,727.1683959960938,735.0454711914062
1767330520.643587,674.6841430664062,668.5772094726562,717.875244140625,559.9798583984375
1767330520.606037,716.9901733398438,725.663818359375,729.6466064453125,710.086669921875
1767330520.6099432,793.2826538085938,801.8677978515625,751.773193359375,909.6685791015625
1767330520.6138494,762.9249877929688,748.8524780273438,739.913330078125,815.7633056640625
1767330520.6177557,672.9140014648438,666.364501953125,716.7246704101562,586.177734375
1767330520.621662,686.7210083007812,691.765869140625,726.9913940429688,634.5907592773438
1767330520.6255682,774.6078491210938,769.8284912109375,743.0995483398438,883.3821411132812
1767330520.6294744,778.5906372070312,774.6078491210938,737.877685546875,871.1682739257812
1767330520.6333807,695.837158203125,702.3865966796875,721.946533203125,616.8894653320312
1767330520.637287,673.6220703125,686.7210083007812,719.8223876953125,572.3707275390625
1767330520.6411932,753.0122680664062,749.3834838867188,734.7799682617188,818.6840209960938
1767330520.6450994,790.2734375,786.379150390625,742.7455444335938,910.1995849609375
1767330520.6490057,719.2028198242188,722.9201049804688,728.5845336914062,683.623291015625
1767330520.652912,663.8863525390625,673.97607421875,715.5740966796875,539.1808471679688
1767330520.6568182,727.1683959960938,728.407470703125,741.6834716796875,720.44189453125
1767330520.6743727,795.1412963867188,774.6078491210938,749.1179809570312,914.00537109375
1767330520.678279,745.4006958007812,741.77197265625,726.4603271484375,763.8985595703125
1767330520.6821852,671.4093627929688,691.4118041992188,720.1763916015625,545.5533447265625
1767330520.6860914,703.1831665039062,706.2808837890625,727.1683959960938,664.2403564453125
1767330520.749668,782.8389282226562,773.2802124023438,740.7098999023438,895.4190063476562
1767330520.7535741,770.27099609375,772.5722045898438,738.1431884765625,826.4725341796875
1767330520.7574804,688.9336547851562,698.1383056640625,719.4683227539062,577.9466552734375
1767330520.7613866,685.7474365234375,682.5612182617188,722.5661010742188,599.3651733398438
1767330520.7335775,766.2882080078125,751.1536254882812,737.9661865234375,852.7589721679688
1767330520.7374837,786.9987182617188,774.5193481445312,739.736328125,879.3993530273438
1767330520.74139,709.4671020507812,712.122314453125,722.3890380859375,639.72412109375
1767330520.7452962,674.6841430664062,674.5071411132812,713.0958862304688,578.03515625
1767330520.7492025,745.9317626953125,731.1511840820312,724.5132446289062,805.9390869140625
1767330520.7531087,805.673583984375,796.1148681640625,749.2949829101562,902.5880737304688
1767330520.757015,745.1351928710938,745.7547607421875,747.3478393554688,692.119873046875
1767330520.7609212,670.435791015625,665.9219970703125,715.66259765625,553.6959228515625
1767330520.7648275,719.910888671875,708.6705932617188,723.4511108398438,721.6810302734375
1767330520.7687337,797.885009765625,783.7239990234375,746.374267578125,921.3513793945312
1767330520.77264,763.7215576171875,762.3939208984375,743.4535522460938,798.6815795898438
1767330520.7765462,676.188720703125,675.65771484375,721.946533203125,569.53857421875
1767330520.7278118,684.8623657226562,681.4990844726562,722.4775390625,638.6620483398438
1767330520.731718,768.8549194335938,774.4307861328125,748.5869750976562,877.3637084960938
1767330520.7356243,774.8733520507812,791.60107421875,746.2857666015625,852.0509033203125
1767330520.7395306,694.0670166015625,700.9705200195312,728.7615356445312,591.4880981445312
1767330520.7434368,673.799072265625,659.3724975585938,719.3798217773438,578.212158203125
1767330520.747343,751.9501953125,747.3478393554688,730.3546142578125,832.31396484375
1767330520.7512493,788.9458618164062,804.5230102539062,746.6398315429688,898.6052856445312
1767330520.7551556,716.1051025390625,724.9557495117188,730.1776123046875,676.9852905273438
1767330520.7590618,658.4874267578125,652.6460571289062,711.768310546875,551.92578125
1767330520.762968,711.8568115234375,715.66259765625,722.8316040039062,743.2765502929688
1767330520.7668743,777.528564453125,795.4067993164062,742.0374755859375,906.8363647460938
1767330520.7707806,733.9833984375,738.5857543945312,737.877685546875,747.3478393554688
1767330520.7746868,659.549560546875,653.5311279296875,716.2821044921875,547.2349243164062
1767330520.778593,690.5267944335938,690.9692993164062,724.2476806640625,664.15185546875
1767330520.8325746,773.63427734375,787.3527221679688,749.6490478515625,885.4177856445312
1767330520.8364809,764.8721313476562,778.8561401367188,751.0651245117188,802.0447998046875
1767330520.8562813,676.8967895507812,671.4093627929688,719.2028198242188,576.353515625
1767330520.8601875,672.5599975585938,666.0989990234375,709.2901000976562,611.1365356445312
1767330520.8640938,765.9342041015625,776.1124267578125,740.6213989257812,844.7933959960938
1767330520.868,790.8930053710938,798.7700805664062,754.6939086914062,870.9027709960938
1767330520.8719063,705.661376953125,698.6693725585938,722.2120361328125,649.1942749023438
1767330520.8758125,669.9932861328125,662.1162109375,706.8119506835938,572.2822265625
1767330520.8797188,744.6041870117188,746.5513305664062,731.8592529296875,784.2550048828125
1767330520.883625,797.4424438476562,796.38037109375,745.3121948242188,915.2444458007812
1767330520.84591,737.0811157226562,725.5753173828125,727.1683959960938,720.44189453125
1767330520.8498163,670.5243530273438,663.1782836914062,716.0166015625,550.067138671875
1767330520.8537226,719.2913208007812,718.8488159179688,726.9028930664062,712.29931640625
1767330520.8576288,797.6195068359375,794.6102905273438,755.4019165039062,903.0305786132812
1767330520.861535,760.8893432617188,747.7904052734375,744.5156860351562,793.63671875
1767330520.8654413,675.1266479492188,663.5323486328125,717.1671752929688,579.539794921875
1767330520.8693476,690.3497314453125,696.8107299804688,724.4246826171875,643.4413452148438
1767330520.8732538,773.0147094726562,776.2894287109375,739.559326171875,886.1258544921875
1767330520.87716,774.5193481445312,761.6859130859375,736.196044921875,860.281982421875
1767330520.8810663,693.5360107421875,689.0221557617188,720.087890625,609.54345703125
1767330520.8849726,678.4013671875,691.5888671875,721.1499633789062,579.4512329101562
1767330520.8888788,754.6054077148438,763.4559936523438,734.7799682617188,822.1357421875
1767330520.892785,783.4584350585938,786.8217163085938,741.1524047851562,896.9236450195312
1767330520.8966913,710.086669921875,720.1763916015625,722.6546020507812,665.4794311523438
1767330520.9065824,660.7001342773438,677.0737915039062,710.7947387695312,539.4463500976562
1767330520.9104886,725.7523193359375,734.4259033203125,736.9041137695312,726.9028930664062
1767330520.9143949,784.4320068359375,777.3515014648438,745.9317626953125,905.5087890625
1767330520.918301,732.3017578125,731.8592529296875,727.699462890625,750.8881225585938
1767330520.9222074,663.7093505859375,676.6312866210938,718.8488159179688,542.6326293945312
1767330520.9261136,704.0682373046875,711.0602416992188,726.4603271484375,676.01171875
1767330520.9300199,785.9366455078125,780.6262817382812,740.8869018554688,900.5524291992188
1767330520.933926,767.704345703125,760.1812744140625,735.3109741210938,812.134521484375
1767330520.9378324,684.9508666992188,688.7566528320312,719.556884765625,571.57421875
1767330520.9417386,685.658935546875,686.8980102539062,719.6453857421875,610.8710327148438
1767330520.9890573,768.3238525390625,754.2513427734375,735.5765380859375,856.1221923828125
1767330520.9929636,786.025146484375,774.6963500976562,741.8604736328125,875.5936279296875
1767330520.9968698,702.6521606445312,716.0166015625,722.3890380859375,631.4044799804688
1767330521.000776,674.330078125,690.3497314453125,725.3982543945312,548.5625610351562
1767330521.0046823,747.6134033203125,740.1788330078125,739.1167602539062,793.63671875
1767330521.0085886,791.2470092773438,781.2457885742188,737.9661865234375,925.688232421875
1767330521.0124948,729.735107421875,739.2937622070312,728.1419677734375,709.4671020507812
1767330521.016401,663.974853515625,672.7369995117188,711.59130859375,550.421142578125
1767330520.9807923,709.2015991210938,698.226806640625,726.7258911132812,725.1327514648438
1767330520.9846985,776.9974975585938,776.6434936523438,747.52490234375,914.00537109375
1767330520.9886048,740.8869018554688,758.8536987304688,736.2845458984375,775.1388549804688
1767330520.992511,666.0989990234375,671.2323608398438,718.4947509765625,559.9798583984375
1767330520.9964173,684.5968627929688,675.834716796875,722.300537109375,653.0000610351562
1767330521.0003235,767.88134765625,768.2353515625,739.6478271484375,890.9052124023438
1767330521.0042298,765.845703125,787.3527221679688,739.4707641601562,852.6704711914062
1767330521.008136,686.9865112304688,707.7855224609375,730.8856811523438,596.8870239257812
1767330521.0120423,671.0553588867188,668.22314453125,723.0971069335938,591.3110961914062
1767330521.0159485,743.8076171875,744.6926879882812,727.1683959960938,839.0404663085938
1767330521.0198548,778.5021362304688,798.5045776367188,739.3822631835938,890.9937133789062
1767330521.023761,707.8740234375,726.1063232421875,724.9557495117188,662.293212890625
1767330521.0276673,659.903564453125,662.9127807617188,712.3878173828125,550.421142578125
1767330521.0315735,731.1511840820312,727.5224609375,727.7879638671875,754.6939086914062
1767330520.9986215,795.9378662109375,801.3367309570312,745.4891967773438,906.6593627929688
1767330521.0025277,744.2501220703125,741.77197265625,735.4879760742188,734.4259033203125
1767330521.006434,674.8611450195312,658.3104248046875,714.3349609375,548.4739990234375
1767330521.0103402,712.2108154296875,698.1383056640625,719.2913208007812,679.0209350585938
1767330521.0142465,791.5125732421875,791.3355102539062,738.9397583007812,894.7109985351562
1767330521.0181527,774.8733520507812,780.5377807617188,745.4006958007812,796.9999389648438
1767330521.022059,691.765869140625,674.5071411132812,721.5040283203125,577.1500854492188
1767330521.0259652,693.1819458007812,673.799072265625,719.73388671875,633.4401245117188
1767330521.0298715,779.1216430664062,781.2457885742188,746.9053344726562,869.0441284179688
1767330521.0337777,791.2470092773438,796.0263671875,749.2064819335938,884.9752807617188
1767330521.108395,704.8648071289062,696.6337280273438,724.9557495117188,642.7333374023438
1767330521.1123013,672.117431640625,664.0633544921875,714.3349609375,573.9638671875
1767330521.1162076,747.9674072265625,754.4283447265625,732.0362548828125,800.274658203125
1767330521.1201138,798.5045776367188,799.74365234375,751.773193359375,916.7490844726562
1767330521.12402,731.770751953125,721.2384643554688,740.7984008789062,715.3970336914062
1767330521.1279263,664.8599243164062,660.5231323242188,716.0166015625,555.0234985351562
1767330521.1318326,718.229248046875,722.300537109375,727.9649658203125,726.8143920898438
1767330521.1357388,791.3355102539062,799.3010864257812,745.84326171875,935.9549560546875
1767330521.139645,744.2501220703125,755.4904174804688,730.089111328125,798.8585815429688
1767330521.1435513,661.4966430664062,674.2415771484375,713.2728881835938,568.2109375
1767330521.1474576,693.0934448242188,708.6705932617188,740.0018310546875,626.005615234375
1767330521.1513638,780.8032836914062,775.669921875,761.6859130859375,864.0877685546875
1767330521.1034193,766.376708984375,751.8616943359375,738.231689453125,847.6256103515625
1767330521.1073256,680.7025756835938,683.977294921875,718.6718139648438,589.0099487304688
1767330521.1112318,668.8427124023438,686.18994140625,719.8223876953125,576.0880126953125
1767330521.115138,750.3570556640625,760.0042724609375,740.267333984375,822.6668090820312
1767330521.1190443,778.6791381835938,776.1124267578125,740.7984008789062,880.9039916992188
1767330521.1229506,704.9533081054688,707.52001953125,723.4511108398438,647.7781982421875
1767330521.1268568,666.8955688476562,675.65771484375,717.2556762695312,545.3762817382812
1767330521.130763,740.09033203125,739.1167602539062,739.3822631835938,744.338623046875
1767330521.1346693,796.5574340820312,780.8032836914062,752.30419921875,906.9248657226562
1767330521.1385756,736.2845458984375,732.8328247070312,727.7879638671875,742.1259765625
1767330521.1424818,670.3472900390625,677.693359375,711.5028076171875,542.9866333007812
1767330521.146388,715.7510986328125,712.7418823242188,722.5661010742188,690.084228515625
1767330521.1502943,793.63671875,780.44921875,740.4443359375,913.3858032226562
1767330521.1542006,766.8192749023438,758.234130859375,737.7891845703125,813.63916015625
1767330521.1470246,683.8887939453125,690.9692993164062,719.8223876953125,572.9902954101562
1767330521.150931,697.7843017578125,695.5716552734375,723.3626098632812,627.2446899414062
1767330521.1548371,784.0780029296875,764.7836303710938,740.4443359375,880.3729248046875
1767330521.1587434,787.1757202148438,779.2986450195312,739.2052612304688,875.859130859375
1767330521.1626496,703.5372314453125,714.2464599609375,722.9201049804688,629.89990234375
1767330521.166556,683.4462280273438,692.6509399414062,727.3453979492188,570.24658203125
1767330521.2519162,750.6226196289062,741.2409057617188,745.7547607421875,808.5057983398438
1767330521.2558224,783.1929321289062,779.8297119140625,743.5421142578125,917.2800903320312
1767330521.2597287,718.05224609375,735.6650390625,723.0086059570312,691.4118041992188
1767330521.263635,660.257568359375,671.6749267578125,712.8303833007812,544.314208984375
1767330521.2675412,714.2464599609375,710.440673828125,727.0798950195312,729.55810546875
1767330521.2714474,779.4756469726562,780.5377807617188,740.4443359375,911.2616577148438
1767330521.2235034,740.7984008789062,755.2249145507812,732.8328247070312,764.4295654296875
1767330521.2274096,666.4530029296875,679.2864379882812,721.1499633789062,553.8729248046875
1767330521.2313159,689.0221557617188,685.0393676757812,725.3982543945312,657.1598510742188
1767330521.235222,778.7676391601562,767.1732788085938,743.8961181640625,888.25
1767330521.2391284,768.3238525390625,777.70556640625,744.7811889648438,830.8978881835938
1767330521.2430346,683.0037231445312,702.47509765625,735.7535400390625,574.0523681640625
1767330521.2469409,672.8255004882812,667.4265747070312,719.556884765625,580.9558715820312
1767330521.250847,749.1179809570312,743.5421142578125,721.5040283203125,835.1461791992188
1767330521.2547534,780.272216796875,795.849365234375,740.0018310546875,878.248779296875
1767330521.2586596,702.3865966796875,718.4947509765625,725.9293212890625,644.326416015625
1767330521.2625659,659.8150634765625,659.1954956054688,708.8475952148438,546.349853515625
1767330521.266472,734.5144653320312,730.7971801757812,728.6730346679688,763.4559936523438
1767330521.2703784,794.5217895507812,800.6287231445312,750.3570556640625,904.18115234375
1767330521.2742846,737.523681640625,739.2052612304688,733.806396484375,720.6189575195312
1767330521.2337134,668.8427124023438,651.760986328125,710.5292358398438,547.9429931640625
1767330521.2376196,712.29931640625,698.6693725585938,720.8844604492188,697.4302368164062
1767330521.241526,792.8401489257812,796.2918701171875,741.948974609375,908.6950073242188
1767330521.2454321,772.2181396484375,780.0067138671875,747.1708374023438,795.1412963867188
1767330521.2493384,686.2784423828125,677.870361328125,718.5833129882812,570.5121459960938
1767330521.2532446,689.1106567382812,680.0830078125,710.7947387695312,642.9988403320312
1767330521.257151,773.5457763671875,783.0159301757812,740.9754028320312,874.9740600585938
1767330521.2610571,780.1837158203125,791.5125732421875,746.9938354492188,868.3360595703125
1767330521.2649634,692.0313720703125,693.5360107421875,719.6453857421875,629.2803344726562
1767330521.2688696,663.5323486328125,658.6644897460938,709.8211669921875,577.7696533203125
1767330521.272776,746.4627685546875,741.1524047851562,734.6029663085938,807.709228515625
1767330521.2766821,786.2021484375,786.9102172851562,745.2236938476562,902.322509765625
1767330521.371944,711.3257446289062,712.8303833007812,724.6017456054688,685.5704345703125
1767330521.3758502,657.2483520507812,659.0184936523438,710.1751708984375,541.924560546875
1767330521.3797565,716.9901733398438,729.3810424804688,723.4511108398438,727.7879638671875
1767330521.3836627,792.8401489257812,813.9931640625,755.5789794921875,895.5960693359375
1767330521.387569,744.0731201171875,747.0823364257812,741.5064697265625,753.8973388671875
1767330521.3914752,662.9127807617188,656.4517822265625,711.0602416992188,561.2189331054688
1767330521.3447375,694.8635864257812,704.2452392578125,725.0442504882812,657.867919921875
1767330521.3486438,777.4400024414062,784.16650390625,742.47998046875,887.2764282226562
1767330521.35255,769.2974243164062,754.5169067382812,737.70068359375,832.6680297851562
1767330521.3564563,686.1014404296875,673.2680053710938,718.4947509765625,588.21337890625
1767330521.3603625,679.3749389648438,686.2784423828125,716.0166015625,593.5238037109375
1767330521.3642688,762.3939208984375,770.0054931640625,738.6742553710938,843.2887573242188
1767330521.368175,783.989501953125,779.0331420898438,739.913330078125,889.1350708007812
1767330521.3720813,700.5280151367188,697.4302368164062,720.1763916015625,642.3792724609375
1767330521.3759875,659.903564453125,670.435791015625,717.1671752929688,553.4303588867188
1767330521.3798938,735.7535400390625,751.6846923828125,741.4179077148438,762.0399169921875
1767330521.3838,788.5918579101562,787.6182861328125,747.7904052734375,902.6765747070312
1767330521.3877063,725.663818359375,725.3982543945312,724.1591796875,733.9833984375
1767330521.3916125,663.4437866210938,674.4185791015625,711.8568115234375,549.1820678710938
1767330521.3955188,715.1315307617188,713.8924560546875,724.336181640625,705.4843139648438
1767330521.353523,786.9102172851562,777.1744995117188,743.8961181640625,918.5192260742188
1767330521.3574293,753.0122680664062,753.6318359375,737.6121826171875,805.1425170898438
1767330521.3613355,672.6484985351562,688.2255859375,714.0694580078125,570.3350830078125
1767330521.3652418,685.658935546875,696.5452270507812,717.9637451171875,630.430908203125
1767330521.369148,770.7135620117188,757.9686279296875,740.9754028320312,878.1602783203125
1767330521.3730543,770.447998046875,763.4559936523438,740.0018310546875,859.8394775390625
1767330521.3769605,686.012939453125,701.6785888671875,717.7867431640625,609.8974609375
1767330521.3808668,672.8255004882812,689.2876586914062,722.6546020507812,563.2545776367188
1767330521.384773,752.8352661132812,746.197265625,739.0282592773438,811.5150146484375
1767330521.3886793,781.77685546875,775.1388549804688,733.8948974609375,911.4386596679688
1767330521.3925855,713.7154541015625,724.4246826171875,723.3626098632812,676.7197875976562
1767330521.3964918,668.1346435546875,667.9576416015625,718.40625,546.9694213867188
1767330521.4842443,726.2833251953125,712.29931640625,731.5052490234375,743.0995483398438
1767330521.4881506,786.6447143554688,784.0780029296875,743.8076171875,907.3673706054688
1767330521.4920568,740.9754028320312,748.8524780273438,727.699462890625,744.4271240234375
1767330521.495963,673.0025024414062,674.8611450195312,716.4591064453125,545.3762817382812
1767330521.4998693,707.6085205078125,698.7578735351562,724.5132446289062,673.3565063476562
1767330521.5037756,785.4940795898438,781.8653564453125,739.559326171875,897.543212890625
1767330521.5076818,766.7307739257812,775.5814208984375,738.231689453125,813.3735961914062
1767330521.511588,677.6048583984375,697.1647338867188,714.157958984375,589.89501953125
1767330521.4836123,677.1622924804688,684.8623657226562,726.8143920898438,593.6123046875
1767330521.4875185,764.7836303710938,751.9501953125,751.1536254882812,827.3576049804688
1767330521.4914248,784.7860717773438,779.4756469726562,739.3822631835938,881.7005615234375
1767330521.495331,705.2188110351562,712.29931640625,720.7074584960938,639.1045532226562
1767330521.4992373,663.1782836914062,662.3817138671875,709.5556640625,564.49365234375
1767330521.5031435,732.124755859375,724.9557495117188,727.6109619140625,788.5033569335938
1767330521.5070498,785.9366455078125,790.6275024414062,746.197265625,915.0674438476562
1767330521.510956,731.94775390625,743.2765502929688,734.6029663085938,722.0350341796875
1767330521.5148623,668.046142578125,666.010498046875,713.8924560546875,557.855712890625
1767330521.5187685,716.9016723632812,705.4843139648438,724.9557495117188,714.4234619140625
1767330521.5226748,794.2562255859375,787.1757202148438,747.7904052734375,911.4386596679688
1767330521.526581,772.3951416015625,772.483642578125,746.7283325195312,781.0687866210938
1767330521.4983537,688.048583984375,675.3921508789062,719.4683227539062,559.8028564453125
1767330521.50226,695.3060913085938,678.7554321289062,710.1751708984375,647.86669921875
1767330521.5061662,783.3699340820312,782.5734252929688,739.0282592773438,882.7626342773438
1767330521.5100725,786.025146484375,787.9722900390625,744.6041870117188,864.353271484375
1767330521.5139787,695.2175903320312,690.7922973632812,722.0350341796875,622.1998291015625
1767330521.517885,672.6484985351562,667.4265747070312,717.875244140625,589.1869506835938
1767330521.5217912,753.4547729492188,755.2249145507812,740.09033203125,826.030029296875
1767330521.5256975,790.3619384765625,800.9827270507812,754.8709106445312,909.93408203125
1767330521.5296037,719.9993896484375,725.8408203125,728.053466796875,688.9336547851562
1767330521.53351,664.15185546875,666.364501953125,706.8119506835938,550.7752075195312
1767330521.5374162,724.9557495117188,731.2396850585938,723.4511108398438,746.020263671875
1767330521.5413225,796.203369140625,806.1160888671875,749.0294799804688,905.5087890625
1767330521.6120317,746.374267578125,741.594970703125,734.33740234375,745.666259765625
1767330521.615938,668.400146484375,652.9115600585938,703.2716674804688,558.7407836914062
1767330521.6198442,702.9176635742188,696.2796630859375,720.6189575195312,672.29443359375
1767330521.6237504,786.4676513671875,788.23779296875,747.1708374023438,900.4638671875
1767330521.6276567,766.9077758789062,766.19970703125,741.6834716796875,826.7380981445312
1767330521.631563,676.1002197265625,678.4013671875,718.4947509765625,580.6903686523438
1767330521.6271486,675.3036499023438,690.438232421875,721.76953125,600.42724609375
1767330521.6310549,760.7123413085938,778.41357421875,739.2052612304688,845.678466796875
1767330521.6349611,777.3515014648438,788.6803588867188,737.0811157226562,878.248779296875
1767330521.6388674,694.0670166015625,705.83837890625,716.9901733398438,632.2010498046875
1767330521.6427736,656.0977783203125,670.8783569335938,709.3786010742188,555.4660034179688
1767330521.6466799,737.3466186523438,754.7824096679688,739.1167602539062,778.8561401367188
1767330521.5982792,794.6102905273438,791.2470092773438,756.4639892578125,907.3673706054688
1767330521.6021855,725.3097534179688,717.9637451171875,727.7879638671875,723.0086059570312
1767330521.6060917,664.8599243164062,673.8875732421875,707.1659545898438,549.3590698242188
1767330521.609998,723.5396728515625,725.9293212890625,719.8223876953125,711.2372436523438
1767330521.6139042,797.7080078125,780.8917846679688,739.6478271484375,917.1030883789062
1767330521.6178105,759.915771484375,745.2236938476562,738.7627563476562,790.9815063476562
1767330521.6217167,680.6140747070312,678.7554321289062,723.0971069335938,560.8649291992188
1767330521.625623,703.0061645507812,706.015380859375,724.7787475585938,642.2022705078125
1767330521.6295292,785.3170776367188,776.9974975585938,740.5328979492188,887.0994262695312
1767330521.6334355,780.272216796875,764.341064453125,740.7098999023438,851.0773315429688
1767330521.6373417,691.94287109375,692.3853759765625,717.2556762695312,600.1617431640625
1767330521.641248,677.6048583984375,690.7037963867188,719.8223876953125,569.3615112304688
1767330521.6451542,761.951416015625,754.0743408203125,740.8869018554688,818.5070190429688
1767330521.6490605,790.8930053710938,776.6434936523438,737.2581176757812,906.6593627929688
1767330521.6567762,715.1315307617188,713.1843872070312,720.6189575195312,666.364501953125
1767330521.6606824,671.2323608398438,668.8427124023438,711.3257446289062,546.7039184570312
1767330521.6645887,732.8328247070312,724.336181640625,728.4959716796875,752.7467651367188
1767330521.668495,786.6447143554688,786.8217163085938,742.5685424804688,909.757080078125
1767330521.6724012,735.1339721679688,754.4283447265625,734.5144653320312,737.4351196289062
1767330521.6763074,660.5231323242188,683.0922241210938,723.0971069335938,540.419921875
1767330521.7308369,693.5360107421875,697.2532348632812,722.2120361328125,675.834716796875
1767330521.734743,774.2537841796875,777.2630004882812,740.09033203125,898.6937866210938
1767330521.7386494,756.1099853515625,774.9618530273438,735.842041015625,810.8954467773438
1767330521.7425556,675.9232177734375,699.554443359375,723.2741088867188,557.0591430664062
1767330521.7464619,680.7910766601562,680.7910766601562,725.9293212890625,597.4180297851562
1767330521.750368,758.5881958007812,747.3478393554688,731.3281860351562,866.388916015625
1767330521.7542744,777.528564453125,781.8653564453125,734.2489013671875,877.2752075195312
1767330521.7581806,700.7050170898438,710.5292358398438,723.0086059570312,637.1574096679688
1767330521.7620869,667.0725708007812,653.9736328125,716.1051025390625,580.6018676757812
1767330521.765993,743.984619140625,725.4867553710938,729.4695434570312,809.1253051757812
1767330521.7177749,796.7344360351562,800.1861572265625,746.7283325195312,922.14794921875
1767330521.721681,735.5765380859375,744.6926879882812,731.8592529296875,716.0166015625
1767330521.7255874,670.5243530273438,664.15185546875,716.37060546875,561.8385009765625
1767330521.7294936,722.12353515625,709.2015991210938,731.94775390625,733.62939453125
1767330521.7333999,794.7872924804688,790.3619384765625,746.8168334960938,925.865234375
1767330521.737306,759.915771484375,762.5709838867188,745.4006958007812,779.6527099609375
1767330521.7412124,681.6761474609375,666.1875,725.3982543945312,560.245361328125
1767330521.7451186,699.3773803710938,676.36572265625,720.7074584960938,666.8955688476562
1767330521.7490249,789.2998657226562,780.09521484375,744.0731201171875,896.8351440429688
1767330521.752931,787.6182861328125,788.5033569335938,740.8869018554688,853.5555419921875
1767330521.7568374,699.3773803710938,692.6509399414062,714.4234619140625,610.5170288085938
1767330521.7607436,679.9945068359375,667.3380737304688,707.52001953125,592.107666015625
1767330521.7646499,761.3318481445312,756.1099853515625,732.8328247070312,829.8358154296875
1767330521.768556,792.7516479492188,796.7344360351562,743.7191162109375,890.8167114257812
1767330521.7438886,708.6705932617188,710.9717407226562,721.1499633789062,660.7001342773438
1767330521.7477949,662.8242797851562,661.585205078125,717.6097412109375,550.3326416015625
1767330521.751701,731.3281860351562,729.3810424804688,734.8684692382812,756.7295532226562
1767330521.7556074,792.30908203125,799.2125854492188,758.7651977539062,899.578857421875
1767330521.7595136,738.0546875,741.6834716796875,743.5421142578125,729.6466064453125
1767330521.7634199,657.1598510742188,662.293212890625,706.2808837890625,551.92578125
1767330521.767326,696.191162109375,707.52001953125,718.229248046875,675.0381469726562
1767330521.7712324,777.0859985351562,787.8837890625,740.7098999023438,893.9144287109375
1767330521.8820047,747.9674072265625,757.526123046875,733.4523315429688,805.7620849609375
1767330521.885911,662.5587768554688,669.8162841796875,710.8832397460938,563.0775756835938
1767330521.8376572,675.3036499023438,685.658935546875,716.9016723632812,601.2238159179688
1767330521.8415635,772.306640625,786.4676513671875,753.808837890625,841.3416137695312
1767330521.8454697,783.4584350585938,776.5549926757812,749.1179809570312,874.177490234375
1767330521.849376,695.4830932617188,686.8095092773438,713.4498901367188,637.2459106445312
1767330521.8532822,671.1438598632812,680.7910766601562,711.2372436523438,563.3430786132812
1767330521.8571885,746.9938354492188,758.9421997070312,728.1419677734375,814.170166015625
1767330521.8610947,795.67236328125,792.3975830078125,741.8604736328125,922.6790161132812
1767330521.865001,739.6478271484375,722.7431030273438,742.8340454101562,681.1450805664062
1767330521.8689072,676.1002197265625,666.9840698242188,721.3269653320312,549.1820678710938
1767330521.8728135,735.3994750976562,731.4166870117188,737.6121826171875,735.7535400390625
1767330521.8767197,811.8690185546875,787.7952880859375,754.0743408203125,926.8388061523438
1767330521.880626,763.987060546875,740.1788330078125,738.40869140625,785.9366455078125
1767330521.8845322,683.4462280273438,675.2151489257812,715.0430297851562,557.501708984375
1767330521.8884385,709.732666015625,706.1038818359375,720.7959594726562,650.1678466796875
1767330521.8480756,788.8573608398438,779.2986450195312,737.9661865234375,889.4890747070312
1767330521.8519819,783.9010009765625,773.3687133789062,736.01904296875,837.889892578125
1767330521.8558881,696.4566650390625,696.8107299804688,720.8844604492188,590.7800903320312
1767330521.8597944,686.9865112304688,692.3853759765625,729.1155395507812,578.1236572265625
1767330521.8637006,768.9434204101562,756.1099853515625,746.8168334960938,822.1357421875
1767330521.8676069,784.4320068359375,768.2353515625,733.5408935546875,892.8523559570312
1767330521.8715131,706.9004516601562,713.0958862304688,718.9373168945312,652.0264892578125
1767330521.8754194,661.4081420898438,681.4105834960938,716.9901733398438,542.0130615234375
1767330521.8793256,721.8580322265625,726.8143920898438,724.6017456054688,757.0835571289062
1767330521.8832319,779.7412109375,778.0595703125,737.70068359375,906.3052978515625
1767330521.8871381,722.3890380859375,740.7984008789062,728.7615356445312,719.556884765625
1767330521.8910444,654.4161376953125,680.43701171875,712.3878173828125,531.0382690429688
1767330521.904931,700.1739501953125,703.4486694335938,726.7258911132812,680.8795776367188
1767330521.9088373,781.4227905273438,778.7676391601562,749.737548828125,896.4810791015625
1767330521.9127436,754.8709106445312,767.7928466796875,733.3638305664062,796.5574340820312
1767330521.9166498,674.6841430664062,697.0762329101562,716.7246704101562,550.6867065429688
1767330522.0042968,685.3933715820312,680.9680786132812,719.8223876953125,602.5514526367188
1767330522.008203,764.341064453125,745.4891967773438,725.8408203125,868.070556640625
1767330522.0121093,775.2273559570312,782.5734252929688,733.9833984375,863.2026977539062
1767330522.0160155,697.69580078125,714.6890258789062,725.4867553710938,617.4204711914062
1767330522.0199218,672.471435546875,663.0012817382812,723.3626098632812,576.353515625
1767330522.023828,752.127197265625,730.9741821289062,737.6121826171875,811.780517578125
1767330521.975845,798.8585815429688,793.1056518554688,742.3914794921875,906.1282958984375
1767330521.9797513,734.9569702148438,740.6213989257812,731.4166870117188,695.66015625
1767330521.9836576,672.9140014648438,666.364501953125,718.4947509765625,558.03271484375
1767330521.9875638,727.9649658203125,714.0694580078125,729.55810546875,736.9926147460938
1767330521.99147,798.3275146484375,793.5482177734375,742.302978515625,917.1030883789062
1767330521.9953763,761.8629150390625,770.27099609375,743.1880493164062,762.482421875
1767330521.9992826,687.1635131835938,677.9588623046875,732.0362548828125,549.0050659179688
1767330522.0031888,708.7590942382812,684.9508666992188,724.6902465820312,676.188720703125
1767330522.007095,788.9458618164062,782.8389282226562,740.0018310546875,903.0305786132812
1767330522.0110013,780.8032836914062,789.742431640625,741.2409057617188,844.0853271484375
1767330522.0149076,694.0670166015625,692.0313720703125,720.1763916015625,608.1273193359375
1767330522.0188138,677.3392944335938,668.6657104492188,718.05224609375,601.3123168945312
1767330522.02272,757.9686279296875,758.3226318359375,742.302978515625,837.1818237304688
1767330522.0266263,783.1929321289062,788.3262939453125,744.9581909179688,883.1166381835938
1767330521.9858747,706.8119506835938,700.262451171875,718.4947509765625,650.079345703125
1767330521.989781,664.5944213867188,659.1954956054688,708.8475952148438,549.89013671875
1767330521.9936872,727.4338989257812,738.7627563476562,727.87646484375,764.1640625
1767330521.9975934,786.7332153320312,813.1080932617188,752.0386962890625,896.8351440429688
1767330522.0014997,734.6914672851562,743.2765502929688,740.5328979492188,710.086669921875
1767330522.005406,657.867919921875,651.3184204101562,711.2372436523438,543.1636352539062
1767330522.0093122,699.2888793945312,708.9360961914062,721.4154663085938,683.977294921875
1767330522.0132184,779.8297119140625,795.2297973632812,745.7547607421875,895.2420043945312
1767330522.0171247,748.8524780273438,750.7996215820312,740.0018310546875,799.566650390625
1767330522.021031,668.9312133789062,663.5323486328125,716.4591064453125,567.679931640625
1767330522.0249372,681.8531494140625,682.9152221679688,717.7867431640625,620.6067504882812
1767330522.0288434,770.27099609375,779.0331420898438,738.8512573242188,868.8671264648438
1767330522.1219773,782.7504272460938,777.2630004882812,740.5328979492188,873.0269165039062
1767330522.1258836,700.08544921875,695.7486572265625,728.407470703125,626.4481201171875
1767330522.1297898,675.1266479492188,678.8439331054688,721.0614624023438,577.1500854492188
1767330522.133696,756.5525512695312,761.5089111328125,741.5064697265625,803.3723754882812
1767330522.1376023,797.7965087890625,793.1056518554688,753.8973388671875,901.1719360351562
1767330522.1415086,723.8936767578125,705.0418090820312,724.5132446289062,703.8912353515625
1767330522.100676,669.6392822265625,656.6288452148438,709.6441650390625,554.138427734375
1767330522.1045823,730.0006103515625,728.7615356445312,731.1511840820312,738.231689453125
1767330522.1084886,795.1412963867188,789.2998657226562,749.560546875,923.1215209960938
1767330522.1123948,746.9053344726562,743.8076171875,732.9213256835938,769.3859252929688
1767330522.116301,665.7449951171875,677.2507934570312,716.5476684570312,552.6338500976562
1767330522.1202073,693.2704467773438,709.9981689453125,721.946533203125,658.39892578125
1767330522.1241136,774.34228515625,774.34228515625,736.6386108398438,894.9765014648438
1767330522.1280198,758.234130859375,760.6238403320312,739.8248291015625,829.2162475585938
1767330522.131926,673.0910034179688,687.9600830078125,719.8223876953125,582.46044921875
1767330522.1358323,669.90478515625,693.8900146484375,720.7074584960938,586.6203002929688
1767330522.1397386,754.6054077148438,761.597412109375,742.5685424804688,834.7921752929688
1767330522.1436448,776.3779296875,770.093994140625,741.5064697265625,900.0213623046875
1767330522.0953562,700.8820190429688,713.4498901367188,724.9557495117188,659.549560546875
1767330522.0992625,659.3724975585938,678.224365234375,715.9281005859375,557.6787109375
1767330522.1031687,727.5224609375,724.0706787109375,730.6201782226562,776.9974975585938
1767330522.107075,784.5205688476562,780.09521484375,739.6478271484375,910.3765869140625
1767330522.1109812,727.4338989257812,741.5064697265625,726.2833251953125,711.59130859375
1767330522.1148875,664.9484252929688,681.2335815429688,717.1671752929688,537.4992065429688
1767330522.1187937,713.8924560546875,709.3786010742188,729.2925415039062,704.4222412109375
1767330522.1227,791.0700073242188,777.2630004882812,743.1880493164062,910.9076538085938
1767330522.1266062,765.668701171875,758.7651977539062,731.94775390625,796.9114379882812
1767330522.1305125,690.7037963867188,693.3589477539062,730.6201782226562,560.245361328125
1767330522.1344187,702.6521606445312,688.7566528320312,730.1776123046875,621.580322265625
1767330522.138325,779.6527099609375,755.9329833984375,725.8408203125,883.7362060546875
1767330522.1422312,781.3342895507812,782.0423583984375,735.2224731445312,865.9464111328125
1767330522.1461375,703.2716674804688,712.122314453125,729.8236083984375,614.8538208007812
1767330522.2338746,679.1979370117188,668.8427124023438,720.7959594726562,581.929443359375
1767330522.2377808,754.2513427734375,736.4615478515625,733.2753295898438,817.0023803710938
1767330522.241687,794.167724609375,783.4584350585938,744.0731201171875,898.5167846679688
1767330522.2455933,725.0442504882812,721.3269653320312,734.0718994140625,677.0737915039062
1767330522.2494996,667.2495727539062,665.3024291992188,719.910888671875,551.57177734375
1767330522.2534058,721.6810302734375,715.2200317382812,729.2925415039062,744.8696899414062
1767330522.257312,791.0700073242188,791.6895751953125,749.91455078125,907.6329345703125
1767330522.2612183,743.3650512695312,765.9342041015625,733.2753295898438,756.198486328125
1767330522.2128959,661.0541381835938,678.4013671875,704.5108032226562,572.5477905273438
1767330522.2168021,696.3681640625,694.8635864257812,737.2581176757812,650.7874145507812
1767330522.2207084,782.130859375,772.5722045898438,757.2605590820312,870.460205078125
1767330522.2246146,767.3502807617188,774.34228515625,741.0639038085938,829.4817504882812
1767330522.2285209,682.11865234375,688.1370849609375,721.946533203125,585.2926635742188
1767330522.2324271,676.1002197265625,668.6657104492188,714.3349609375,599.0111694335938
1767330522.2363334,760.9778442382812,761.8629150390625,732.478759765625,840.6336059570312
1767330522.2402396,787.9722900390625,797.6195068359375,747.0823364257812,874.9740600585938
1767330522.2441459,706.2808837890625,703.2716674804688,726.6373901367188,642.2022705078125
1767330522.2480521,670.8783569335938,655.0357055664062,713.0073852539062,559.1832885742188
1767330522.2519584,741.4179077148438,731.8592529296875,730.7971801757812,777.9710693359375
1767330522.2558646,792.6631469726562,804.4344482421875,751.6846923828125,898.6052856445312
1767330522.2597709,734.8684692382812,738.7627563476562,743.5421142578125,705.3073120117188
1767330522.2636771,665.656494140625,657.0713500976562,714.0694580078125,559.2717895507812
1767330522.241318,713.3613891601562,713.0958862304688,721.946533203125,719.8223876953125
1767330522.2452242,792.3975830078125,796.1148681640625,742.302978515625,916.9260864257812
1767330522.2491305,764.5181274414062,758.4996337890625,736.4615478515625,808.240234375
1767330522.2530367,687.87158203125,678.5784301757812,714.9545288085938,581.929443359375
1767330522.256943,703.979736328125,698.7578735351562,718.7603149414062,646.0965576171875
1767330522.2608492,786.2906494140625,783.1044311523438,744.8696899414062,885.0637817382812
1767330522.2647555,783.5469970703125,772.3951416015625,742.6570434570312,867.4509887695312
1767330522.2686617,696.6337280273438,688.9336547851562,726.1063232421875,616.7124633789062
1767330522.272568,674.2415771484375,677.693359375,721.8580322265625,582.46044921875
1767330522.2764742,754.33984375,765.845703125,742.1259765625,816.02880859375
1767330522.377638,793.9022216796875,788.5033569335938,753.6318359375,892.144287109375
1767330522.3815444,712.7418823242188,700.6165161132812,723.0086059570312,682.8267211914062
1767330522.3610742,659.2839965820312,665.1254272460938,712.0338134765625,552.7223510742188
1767330522.3649805,724.1591796875,739.6478271484375,731.3281860351562,744.6926879882812
1767330522.3688867,786.2021484375,790.7160034179688,744.8696899414062,915.864013671875
1767330522.372793,732.8328247070312,734.2489013671875,733.0098266601562,750.091552734375
1767330522.3766992,656.6288452148438,665.2139282226562,718.229248046875,546.4383544921875
1767330522.3806055,697.1647338867188,705.1303100585938,726.7258911132812,669.90478515625
1767330522.3845117,781.0687866210938,778.5906372070312,739.559326171875,901.2604370117188
1767330522.388418,763.1904907226562,761.6859130859375,737.877685546875,824.4368896484375
1767330522.3923242,678.3128662109375,691.4118041992188,721.0614624023438,580.247802734375
1767330522.3962305,682.8267211914062,704.15673828125,723.5396728515625,601.931884765625
1767330522.3604522,769.56298828125,771.8641357421875,746.6398315429688,843.9083251953125
1767330522.3643584,777.6170654296875,771.775634765625,741.77197265625,884.5327758789062
1767330522.3682647,695.1290893554688,704.9533081054688,724.336181640625,639.3700561523438
1767330522.372171,667.9576416015625,674.5071411132812,715.3970336914062,554.2269287109375
1767330522.3760772,744.5156860351562,731.4166870117188,729.3810424804688,788.414794921875
1767330522.3799834,796.0263671875,784.8745727539062,743.630615234375,912.2352294921875
1767330522.3838897,733.4523315429688,735.6650390625,729.0270385742188,702.9176635742188
1767330522.387796,673.8875732421875,675.5692138671875,717.3441772460938,542.278564453125
1767330522.3917022,732.3902587890625,711.0602416992188,728.407470703125,724.6902465820312
1767330522.3956084,809.6563720703125,784.5205688476562,744.6041870117188,926.1307373046875
1767330522.3995147,774.0767822265625,766.2882080078125,737.4351196289062,801.602294921875
1767330522.403421,694.6865844726562,699.4658813476562,725.0442504882812,571.8397216796875
1767330522.4073272,711.5028076171875,695.837158203125,734.2489013671875,643.1758422851562
1767330522.4112334,786.1136474609375,760.8893432617188,739.559326171875,899.2247924804688
1767330522.4373856,780.6262817382812,777.70556640625,733.8948974609375,859.6624755859375
1767330522.4412918,698.6693725585938,704.5993041992188,717.6097412109375,602.9939575195312
1767330522.445198,680.7025756835938,670.435791015625,712.6533813476562,593.6123046875
1767330522.4491043,758.5881958007812,745.9317626953125,730.3546142578125,837.3588256835938
1767330522.4530106,791.4240112304688,794.4332275390625,737.0811157226562,901.3489379882812
1767330522.4569168,719.2913208007812,733.1868286132812,729.2040405273438,674.5071411132812
1767330522.467954,673.2680053710938,673.2680053710938,717.6982421875,563.5201416015625
1767330522.4718602,736.373046875,724.5132446289062,723.80517578125,763.4559936523438
1767330522.4757664,794.6102905273438,791.4240112304688,737.7891845703125,918.6077270507812
1767330522.4796727,741.4179077148438,761.5089111328125,730.8856811523438,736.01904296875
1767330522.483579,671.3208618164062,684.0657958984375,719.910888671875,533.60498046875
1767330522.4874852,705.0418090820312,696.1026611328125,720.087890625,682.7382202148438
1767330522.4913914,780.5377807617188,781.77685546875,738.6742553710938,900.8179321289062
1767330522.4952977,762.3939208984375,781.6883544921875,738.4971923828125,809.3908081054688
1767330522.499204,678.3128662109375,685.7474365234375,720.1763916015625,574.4063720703125
1767330522.5031102,676.7197875976562,671.4978637695312,716.193603515625,605.1181030273438
1767330522.5070164,763.0134887695312,766.4652099609375,731.94775390625,846.1209716796875
1767330522.5109227,782.3963623046875,793.9022216796875,742.47998046875,865.50390625
1767330522.514829,699.3773803710938,694.7750854492188,722.4775390625,630.25390625
1767330522.5187352,668.4886474609375,653.9736328125,712.2108154296875,565.2017211914062
1767330522.4783323,743.8076171875,733.4523315429688,731.5052490234375,795.3182983398438
1767330522.4822385,791.60107421875,798.06201171875,751.0651245117188,896.215576171875
1767330522.4861448,730.0006103515625,730.3546142578125,743.984619140625,687.3405151367188
1767330522.490051,663.974853515625,649.90234375,715.66259765625,552.27978515625
1767330522.4939573,717.6982421875,716.5476684570312,723.7166748046875,723.982177734375
1767330522.4978635,796.9999389648438,803.4608764648438,745.4006958007812,913.1203002929688
1767330522.5017698,761.0663452148438,753.3662719726562,734.4259033203125,789.6539306640625
1767330522.505676,676.01171875,665.656494140625,717.875244140625,568.9190063476562
1767330522.5095823,697.9613037109375,689.8187255859375,726.1063232421875,650.25634765625
1767330522.5134885,787.3527221679688,787.52978515625,748.9409790039062,890.7282104492188
1767330522.5173948,779.2101440429688,779.3871459960938,742.2144775390625,858.42333984375
1767330522.521301,691.8543701171875,687.694580078125,720.1763916015625,610.8710327148438
1767330522.5423281,682.47265625,679.6405029296875,717.4326782226562,600.250244140625
1767330522.5462344,769.4744262695312,773.3687133789062,743.4535522460938,839.2174682617188
1767330522.5501406,799.3010864257812,795.1412963867188,757.9686279296875,893.5604248046875
1767330522.5540469,713.1843872070312,699.4658813476562,727.3453979492188,679.4634399414062
1767330522.5579531,664.15185546875,659.3724975585938,710.6177368164062,564.5822143554688
1767330522.5618594,734.8684692382812,739.2052612304688,729.2925415039062,763.2789916992188
1767330522.6168556,796.203369140625,784.4320068359375,742.5685424804688,920.6433715820312
1767330522.6207619,743.0110473632812,728.7615356445312,733.806396484375,744.5156860351562
1767330522.6246681,669.90478515625,672.0289306640625,718.8488159179688,548.385498046875
1767330522.6285744,709.1130981445312,718.3177490234375,727.3453979492188,680.9680786132812
1767330522.6324806,784.8745727539062,787.2642211914062,744.9581909179688,905.1547241210938
1767330522.6363869,757.526123046875,753.2777709960938,740.5328979492188,810.27587890625
1767330522.6031938,673.7105712890625,673.5335693359375,720.087890625,561.0419311523438
1767330522.6071,675.4806518554688,687.2520141601562,715.1315307617188,601.0468139648438
1767330522.6110063,755.4904174804688,759.3847045898438,717.875244140625,871.6993408203125
1767330522.6149125,775.3158569335938,772.483642578125,734.4259033203125,859.1314086914062
1767330522.6188188,701.76708984375,702.8291625976562,736.4615478515625,587.9478759765625
1767330522.622725,666.8955688476562,669.2852172851562,716.7246704101562,556.174072265625
1767330522.6266313,738.6742553710938,732.9213256835938,732.7443237304688,798.239013671875
1767330522.6305375,783.635498046875,779.0331420898438,751.5076904296875,905.5087890625
1767330522.6344438,712.476318359375,725.9293212890625,736.1075439453125,689.9072265625
1767330522.63835,653.3540649414062,676.4542236328125,720.3533935546875,534.0474853515625
1767330522.6422563,710.263671875,717.3441772460938,730.6201782226562,720.087890625
1767330522.6461625,778.7676391601562,778.7676391601562,744.2501220703125,909.2260131835938
1767330522.6500688,742.0374755859375,747.4363403320312,731.8592529296875,770.1824951171875
1767330522.653975,669.9932861328125,687.0750122070312,719.8223876953125,551.0407104492188
1767330522.6126842,699.4658813476562,702.2095947265625,733.62939453125,639.1045532226562
1767330522.6165905,779.3871459960938,761.5089111328125,739.913330078125,894.2684326171875
1767330522.6204967,772.3951416015625,767.704345703125,737.70068359375,854.9716186523438
1767330522.624403,689.9957275390625,701.590087890625,728.3189697265625,601.931884765625
1767330522.6283092,679.1979370117188,677.2507934570312,722.4775390625,602.6399536132812
1767330522.6322155,757.1720581054688,748.23291015625,738.1431884765625,843.81982421875
1767330522.6361217,777.9710693359375,784.0780029296875,747.87890625,885.683349609375
1767330522.640028,702.12109375,720.8844604492188,730.443115234375,647.7781982421875
1767330522.6439342,663.4437866210938,666.9840698242188,715.4855346679688,551.3062133789062
1767330522.6478405,729.55810546875,720.6189575195312,734.4259033203125,762.5709838867188
1767330522.6517467,782.6619262695312,786.025146484375,752.9237670898438,903.2075805664062
1767330522.655653,731.2396850585938,753.1007690429688,749.737548828125,714.4234619140625
1767330522.7368593,665.656494140625,680.1715087890625,741.1524047851562,523.3381958007812
1767330522.7407656,698.40380859375,703.802734375,731.6822509765625,682.11865234375
1767330522.7446718,767.4387817382812,784.4320068359375,745.666259765625,892.144287109375
1767330522.748578,739.2052612304688,770.9790649414062,746.9053344726562,780.09521484375
1767330522.7524843,652.6460571289062,676.7197875976562,724.1591796875,549.6246337890625
1767330522.7563906,658.8414916992188,675.1266479492188,725.7523193359375,601.577880859375
1767330522.7183273,745.2236938476562,775.4043579101562,752.3927001953125,846.20947265625
1767330522.7222335,763.81005859375,802.7528686523438,758.5881958007812,848.6876831054688
1767330522.7261398,681.7646484375,702.47509765625,729.2925415039062,608.5698852539062
1767330522.730046,656.00927734375,662.5587768554688,724.2476806640625,563.78564453125
1767330522.7339523,735.6650390625,746.9938354492188,739.559326171875,797.0884399414062
1767330522.7378585,784.343505859375,808.240234375,746.9053344726562,888.7810668945312
1767330522.7417648,721.76953125,737.3466186523438,737.6121826171875,666.5415649414062
1767330522.745671,660.257568359375,656.6288452148438,713.626953125,543.3406372070312
1767330522.7495773,721.946533203125,713.1843872070312,729.912109375,735.0454711914062
1767330522.7534835,796.1148681640625,792.7516479492188,748.9409790039062,906.9248657226562
1767330522.7573898,749.4719848632812,750.0030517578125,735.7535400390625,766.1112060546875
1767330522.761296,668.3116455078125,665.9219970703125,720.3533935546875,554.4039306640625
1767330522.71287,694.8635864257812,694.5980834960938,728.8500366210938,652.7345581054688
1767330522.7167761,775.5814208984375,791.778076171875,749.560546875,881.8775634765625
1767330522.7206824,766.2882080078125,777.4400024414062,746.2857666015625,833.818603515625
1767330522.7245886,684.4197998046875,685.8359375,723.0971069335938,592.3731689453125
1767330522.728495,675.0381469726562,678.4013671875,710.9717407226562,591.8421630859375
1767330522.7324011,759.2077026367188,771.2445678710938,738.5857543945312,830.6323852539062
1767330522.7363074,790.2734375,792.486083984375,759.561767578125,873.1154174804688
1767330522.7402136,710.263671875,692.8279418945312,723.5396728515625,655.5667724609375
1767330522.74412,663.8863525390625,656.8943481445312,703.7142333984375,558.9177856445312
1767330522.7480261,731.5052490234375,741.5064697265625,726.8143920898438,764.1640625
1767330522.7519324,787.52978515625,785.3170776367188,739.1167602539062,912.32373046875
1767330522.7558386,733.2753295898438,723.1856079101562,726.19482421875,729.8236083984375
1767330522.759745,665.2139282226562,664.15185546875,713.0958862304688,544.6682739257812
1767330522.7636511,706.2808837890625,712.476318359375,726.1063232421875,691.0578002929688
1767330522.863651,786.2906494140625,786.2021484375,745.3121948242188,908.429443359375
1767330522.8675573,761.3318481445312,757.7916259765625,736.196044921875,804.7000122070312
1767330522.8714635,678.6669311523438,683.7117919921875,717.521240234375,563.4315795898438
1767330522.8753698,695.66015625,709.8211669921875,732.0362548828125,612.0216064453125
1767330522.879276,781.953857421875,779.4756469726562,749.3834838867188,863.822265625
1767330522.8831823,781.6883544921875,767.52734375,733.4523315429688,876.39013671875
1767330522.8870885,696.8992309570312,694.9520874023438,713.0958862304688,637.1574096679688
1767330522.8909948,678.1358642578125,682.5612182617188,720.7074584960938,583.4340209960938
1767330522.8431118,757.4375610351562,742.0374755859375,741.3294067382812,816.205810546875
1767330522.847018,792.3975830078125,766.4652099609375,741.948974609375,913.0317993164062
1767330522.8509243,721.3269653320312,713.0073852539062,727.699462890625,687.87158203125
1767330522.8548305,668.8427124023438,678.4898681640625,712.9188842773438,545.641845703125
1767330522.8587368,729.1155395507812,725.3982543945312,721.4154663085938,745.9317626953125
1767330522.862643,796.0263671875,785.0515747070312,738.3201904296875,923.4755249023438
1767330522.8665493,750.2685546875,754.6939086914062,731.770751953125,768.5009155273438
1767330522.8704555,678.5784301757812,691.3233032226562,722.6546020507812,558.2982177734375
1767330522.8743618,716.0166015625,708.22802734375,738.8512573242188,660.7886352539062
1767330522.878268,790.2734375,767.704345703125,744.6926879882812,907.0133666992188
1767330522.8821743,773.1917114257812,765.9342041015625,737.0811157226562,849.1301879882812
1767330522.8860805,694.0670166015625,700.1739501953125,719.9993896484375,591.9306640625
1767330522.8899868,688.4910888671875,678.1358642578125,716.1051025390625,607.5078125
1767330522.893893,772.5722045898438,746.5513305664062,735.0454711914062,856.3876953125
1767330522.8858724,797.0884399414062,780.1837158203125,739.4707641601562,890.1971435546875
1767330522.8897786,718.8488159179688,717.7867431640625,722.6546020507812,646.8046264648438
1767330522.8936849,678.7554321289062,665.1254272460938,711.768310546875,561.8385009765625
1767330522.897591,748.8524780273438,725.663818359375,728.407470703125,783.8125
1767330522.9014974,802.310302734375,794.6102905273438,743.984619140625,915.864013671875
1767330522.9054036,741.8604736328125,750.8881225585938,736.5501098632812,717.1671752929688
1767330522.9093099,673.799072265625,675.65771484375,720.7074584960938,529.710693359375
1767330522.913216,712.0338134765625,692.3853759765625,719.1143188476562,700.8820190429688
1767330522.9171224,789.1228637695312,773.8997802734375,738.3201904296875,912.4122314453125
1767330522.9210286,762.3939208984375,770.447998046875,730.8856811523438,788.8573608398438
1767330522.9760842,681.3220825195312,678.5784301757812,708.051025390625,566.8833618164062
1767330522.9799905,698.6693725585938,680.7025756835938,715.839599609375,637.511474609375
1767330522.9838967,782.9274291992188,772.8377075195312,740.6213989257812,874.9740600585938
1767330522.987803,788.7688598632812,785.84814453125,741.2409057617188,855.4141235351562
1767330522.9917092,701.590087890625,694.2440185546875,726.7258911132812,618.4825439453125
1767330522.9956155,673.3565063476562,663.1782836914062,722.9201049804688,588.21337890625
1767330522.9995217,754.33984375,746.1087646484375,734.8684692382812,817.2678833007812
1767330523.003428,792.30908203125,800.274658203125,741.1524047851562,898.7822875976562
1767330523.0073342,714.3349609375,724.0706787109375,715.0430297851562,695.66015625
1767330523.0112405,663.974853515625,660.257568359375,706.9004516601562,562.0155029296875
1767330522.9757593,734.9569702148438,730.1776123046875,744.8696899414062,722.2120361328125
1767330522.9796655,797.7080078125,796.5574340820312,755.3134155273438,901.968505859375
1767330522.9835718,745.666259765625,737.1696166992188,735.2224731445312,765.4916381835938
1767330522.987478,667.869140625,659.2839965820312,722.7431030273438,560.068359375
1767330522.9913843,694.5095825195312,695.66015625,727.7879638671875,674.9496459960938
1767330522.9952905,777.6170654296875,790.0079345703125,755.2249145507812,893.825927734375
1767330522.9991968,765.845703125,766.2882080078125,747.2593383789062,827.53466796875
1767330523.003103,681.941650390625,679.6405029296875,718.6718139648438,593.789306640625
1767330523.0070093,677.9588623046875,688.048583984375,718.4947509765625,608.8353881835938
1767330523.0109155,764.5181274414062,777.7940673828125,739.1167602539062,846.386474609375
1767330523.0148218,790.5390014648438,793.99072265625,755.3134155273438,867.2739868164062
1767330523.018728,709.0245971679688,700.1739501953125,725.663818359375,647.7781982421875
1767330523.0011644,802.4873046875,792.6631469726562,747.7904052734375,913.6513671875
1767330523.0050707,736.196044921875,717.521240234375,729.0270385742188,719.4683227539062
1767330523.008977,663.4437866210938,655.3897094726562,714.4234619140625,546.9694213867188
1767330523.0128832,712.0338134765625,713.5384521484375,723.2741088867188,707.8740234375
1767330523.0167894,786.379150390625,788.5918579101562,740.267333984375,914.0938720703125
1767330523.0206957,751.773193359375,759.3847045898438,738.4971923828125,798.6815795898438
