timestamp,tp9,af7,af8,tp10
1767330455.3284996,698.6693725585938,700.7050170898438,730.1776123046875,604.321533203125
1767330455.3324058,779.8297119140625,766.8192749023438,746.5513305664062,888.7810668945312
1767330455.336312,777.0859985351562,775.7584228515625,739.3822631835938,880.3729248046875
1767330455.3402183,695.66015625,703.2716674804688,722.0350341796875,597.4180297851562
1767330455.3441246,676.7197875976562,664.6829223632812,714.6890258789062,567.1488647460938
1767330455.3480308,751.1536254882812,734.9569702148438,734.8684692382812,832.31396484375
1767330455.314693,785.1400756835938,791.8665771484375,744.338623046875,918.4306640625
1767330455.3185992,716.8131713867188,738.8512573242188,727.7879638671875,671.2323608398438
1767330455.3225055,665.4794311523438,667.869140625,713.5384521484375,531.0382690429688
1767330455.3264117,722.3890380859375,710.3521728515625,727.6109619140625,743.0110473632812
1767330455.330318,785.9366455078125,789.742431640625,750.091552734375,924.0950927734375
1767330455.3342242,741.594970703125,765.3146362304688,735.4879760742188,745.9317626953125
1767330455.3381305,676.9852905273438,682.6497192382812,720.087890625,515.9036865234375
1767330455.3420367,708.5820922851562,687.7830810546875,723.5396728515625,667.51513671875
1767330455.345943,787.2642211914062,785.4940795898438,738.4971923828125,928.431884765625
1767330455.3498492,778.236572265625,797.0884399414062,742.2144775390625,840.3680419921875
1767330455.325252,691.5003662109375,686.5440063476562,720.8844604492188,581.1328735351562
1767330455.3291583,686.8980102539062,664.8599243164062,718.5833129882812,604.7640991210938
1767330455.3330646,773.1032104492188,767.52734375,744.0731201171875,870.6372680664062
1767330455.3369708,790.9815063476562,810.5414428710938,749.3834838867188,897.1006469726562
1767330455.340877,708.8475952148438,711.1487426757812,725.3097534179688,635.5643310546875
1767330455.3447833,672.2059326171875,650.5219116210938,711.8568115234375,549.713134765625
1767330455.3486896,744.6926879882812,739.559326171875,734.6029663085938,792.8401489257812
1767330455.3525958,794.7872924804688,811.1609497070312,749.8260498046875,928.5204467773438
1767330455.3656304,740.0018310546875,738.1431884765625,743.0995483398438,699.1118774414062
1767330455.3695366,669.1967163085938,645.9195556640625,716.5476684570312,529.2681274414062
1767330455.373443,707.3429565429688,703.0946655273438,719.73388671875,715.4855346679688
1767330455.3773491,786.7332153320312,806.027587890625,749.2949829101562,930.3790283203125
1767330455.3812554,751.8616943359375,761.8629150390625,739.8248291015625,798.8585815429688
1767330455.3851616,669.6392822265625,661.2311401367188,717.2556762695312,551.57177734375
1767330455.389068,690.084228515625,688.9336547851562,722.300537109375,631.8470458984375
1767330455.3929741,775.3158569335938,792.30908203125,742.5685424804688,888.3385009765625
1767330455.455757,774.9618530273438,785.0515747070312,746.6398315429688,867.9820556640625
1767330455.4596632,689.2876586914062,679.0209350585938,724.9557495117188,600.6928100585938
1767330455.4635694,673.6220703125,664.5944213867188,714.9545288085938,566.5293579101562
1767330455.4674757,753.2777709960938,775.0503540039062,735.3109741210938,827.1806030273438
1767330455.471382,790.1849365234375,814.170166015625,754.6054077148438,896.5696411132812
1767330455.4752882,713.8924560546875,709.3786010742188,728.5845336914062,666.2760009765625
1767330455.4791944,662.3817138671875,657.69091796875,707.7855224609375,544.9337768554688
1767330455.4831007,731.5052490234375,747.9674072265625,729.912109375,749.1179809570312
1767330455.4474008,792.3975830078125,807.2666625976562,744.338623046875,931.1755981445312
1767330455.451307,738.40869140625,732.3902587890625,727.3453979492188,752.127197265625
1767330455.4552133,665.83349609375,657.9564208984375,709.3786010742188,528.8256225585938
1767330455.4591196,703.0061645507812,715.5740966796875,723.982177734375,666.5415649414062
1767330455.4630258,784.343505859375,794.3447265625,740.267333984375,920.2008056640625
1767330455.466932,762.3939208984375,757.880126953125,729.2040405273438,833.4645385742188
1767330455.4708383,682.3841552734375,676.6312866210938,718.1407470703125,567.9454345703125
1767330455.4747446,685.3048706054688,696.7222290039062,722.0350341796875,597.2410278320312
1767330455.4786508,764.6951293945312,782.307861328125,745.9317626953125,854.9716186523438
1767330455.482557,773.63427734375,775.9354248046875,743.7191162109375,892.0557861328125
1767330455.4864633,691.2348022460938,688.8451538085938,715.1315307617188,634.3251953125
1767330455.4903696,660.1690673828125,676.8967895507812,714.5120239257812,541.8360595703125
1767330455.4942758,730.9741821289062,756.4639892578125,731.4166870117188,793.9022216796875
1767330455.498182,773.8997802734375,790.8930053710938,739.736328125,925.5997314453125
1767330455.4647787,709.0245971679688,722.9201049804688,727.5224609375,699.0233764648438
1767330455.468685,647.4241333007812,666.0989990234375,716.1051025390625,520.5945434570312
1767330455.4725912,700.5280151367188,714.7775268554688,731.2396850585938,713.0958862304688
1767330455.4764974,773.8997802734375,777.2630004882812,744.338623046875,930.2020263671875
1767330455.4804037,736.1075439453125,735.2224731445312,735.1339721679688,781.4227905273438
1767330455.48431,659.6380615234375,672.7369995117188,719.2913208007812,537.0567016601562
1767330455.4882162,686.4554443359375,702.12109375,726.017822265625,619.0136108398438
1767330455.4921224,768.6779174804688,768.9434204101562,740.8869018554688,897.3661499023438
1767330455.4960287,762.5709838867188,772.5722045898438,740.09033203125,872.0533447265625
1767330455.499935,684.7738647460938,702.2095947265625,724.6017456054688,587.2398071289062
1767330455.554385,677.0737915039062,674.7726440429688,720.8844604492188,573.8753662109375
1767330455.5582912,756.198486328125,743.0110473632812,738.7627563476562,843.642822265625
1767330455.5621974,791.60107421875,783.635498046875,743.7191162109375,915.9525146484375
1767330455.5661037,725.9293212890625,726.017822265625,727.87646484375,662.1162109375
1767330455.57001,681.7646484375,672.0289306640625,720.1763916015625,542.45556640625
1767330455.5739162,741.6834716796875,724.0706787109375,729.1155395507812,774.165283203125
1767330455.5778224,801.956298828125,796.2918701171875,743.5421142578125,942.8584594726562
1767330455.5817287,746.5513305664062,756.1099853515625,734.5144653320312,753.4547729492188
1767330455.585635,677.0737915039062,685.3933715820312,728.1419677734375,533.4279174804688
1767330455.5895412,718.9373168945312,701.6785888671875,734.6029663085938,681.6761474609375
1767330455.5934474,788.414794921875,777.1744995117188,739.3822631835938,936.3089599609375
1767330455.5973537,763.987060546875,781.8653564453125,740.267333984375,824.4368896484375
1767330455.60126,679.906005859375,688.3140869140625,720.7959594726562,564.1396484375
1767330455.6051662,683.977294921875,674.153076171875,721.2384643554688,612.7296752929688
1767330455.5753558,766.1112060546875,767.7928466796875,740.267333984375,877.2752075195312
1767330455.579262,774.6078491210938,799.2125854492188,745.666259765625,881.7005615234375
1767330455.5831683,692.6509399414062,704.9533081054688,724.1591796875,619.1021118164062
1767330455.5870745,660.08056640625,656.186279296875,713.0073852539062,556.6166381835938
1767330455.5909808,732.2132568359375,742.47998046875,733.2753295898438,801.956298828125
1767330455.594887,773.7227783203125,813.5506591796875,747.1708374023438,914.7134399414062
1767330455.5987933,712.7418823242188,739.4707641601562,742.1259765625,671.9404296875
1767330455.6026995,652.3804931640625,642.7333374023438,722.5661010742188,520.0634765625
1767330455.6066058,703.625732421875,706.1923828125,724.5132446289062,726.9913940429688
1767330455.610512,774.2537841796875,808.6828002929688,742.2144775390625,915.0674438476562
1767330455.6144183,733.3638305664062,759.2962036132812,732.124755859375,763.3674926757812
1767330455.6183245,656.2747802734375,656.186279296875,713.0073852539062,530.24169921875
1767330455.613721,685.3048706054688,682.7382202148438,716.1051025390625,631.935546875
1767330455.6176271,773.7227783203125,788.3262939453125,742.0374755859375,887.8074951171875
1767330455.6215334,768.2353515625,776.4664306640625,744.9581909179688,847.0060424804688
1767330455.6254396,691.4118041992188,675.5692138671875,719.1143188476562,589.718017578125
1767330455.629346,686.6325073242188,667.869140625,715.3970336914062,581.6639404296875
1767330455.6332521,769.2974243164062,770.0054931640625,741.948974609375,846.20947265625
1767330455.705696,804.6115112304688,806.381591796875,762.12841796875,897.1891479492188
1767330455.7096024,727.6109619140625,697.872802734375,728.7615356445312,658.5759887695312
1767330455.7135086,674.7726440429688,645.9195556640625,702.8291625976562,551.57177734375
1767330455.7174149,745.0466918945312,744.6041870117188,727.9649658203125,769.8284912109375
1767330455.721321,806.4700927734375,806.2930908203125,744.6041870117188,940.3802490234375
1767330455.7252274,746.197265625,728.1419677734375,727.9649658203125,745.9317626953125
1767330455.6780124,674.7726440429688,656.5403442382812,711.4142456054688,538.6498413085938
1767330455.6819186,721.2384643554688,715.66259765625,731.2396850585938,690.5267944335938
1767330455.6858249,799.2125854492188,792.8401489257812,754.6939086914062,928.1663818359375
1767330455.6897311,762.482421875,755.1364135742188,738.6742553710938,815.6748046875
1767330455.6936374,678.9324340820312,672.5599975585938,715.839599609375,549.8016357421875
1767330455.6975436,686.8095092773438,694.4210205078125,721.8580322265625,599.4536743164062
1767330455.7014499,775.2273559570312,788.5918579101562,751.1536254882812,859.3969116210938
1767330455.7053561,781.1572875976562,778.0595703125,743.984619140625,875.4165649414062
1767330455.7092624,689.3761596679688,688.7566528320312,713.98095703125,616.5354614257812
1767330455.7131686,668.046142578125,681.0565795898438,714.5120239257812,547.7659912109375
1767330455.7170749,748.5869750976562,752.8352661132812,732.3902587890625,806.8241577148438
1767330455.7209811,789.3883666992188,784.0780029296875,739.1167602539062,921.4398803710938
1767330455.7248874,717.875244140625,718.3177490234375,721.2384643554688,683.5347900390625
1767330455.7287936,660.257568359375,662.47021484375,713.8924560546875,517.0542602539062
1767330455.709953,718.7603149414062,718.40625,730.8856811523438,726.9028930664062
1767330455.7138593,785.3170776367188,787.3527221679688,741.0639038085938,932.8572387695312
1767330455.7177656,738.0546875,749.8260498046875,733.4523315429688,763.8985595703125
1767330455.7216718,660.6116333007812,684.154296875,717.3441772460938,527.4979858398438
1767330455.725578,695.2175903320312,710.3521728515625,730.1776123046875,630.8734741210938
1767330455.7294843,776.3779296875,774.2537841796875,741.5064697265625,901.1719360351562
1767330455.7333906,761.4203491210938,761.1548461914062,730.6201782226562,852.139404296875
1767330455.7372968,687.0750122070312,688.1370849609375,716.8131713867188,573.3442993164062
1767330455.741203,683.4462280273438,675.3036499023438,712.6533813476562,584.0535888671875
1767330455.7451093,766.376708984375,753.3662719726562,737.877685546875,861.1670532226562
1767330455.7490156,797.4424438476562,789.1228637695312,750.5341186523438,913.828369140625
1767330455.7529218,718.8488159179688,719.4683227539062,728.1419677734375,650.7874145507812
1767330455.8239245,678.9324340820312,663.974853515625,716.1051025390625,553.96142578125
1767330455.8278308,750.1800537109375,721.2384643554688,730.9741821289062,796.203369140625
1767330455.831737,803.1068725585938,793.813720703125,744.6926879882812,943.9205322265625
1767330455.8356433,741.77197265625,752.481201171875,730.1776123046875,736.8156127929688
1767330455.8395495,680.5255737304688,679.906005859375,725.8408203125,529.2681274414062
1767330455.8434558,721.3269653320312,699.3773803710938,729.8236083984375,703.0946655273438
1767330455.8149564,787.1757202148438,776.200927734375,733.806396484375,939.583740234375
1767330455.8188627,764.8721313476562,769.9169921875,736.7271118164062,812.9310913085938
1767330455.822769,684.7738647460938,685.4818725585938,721.3269653320312,563.2545776367188
1767330455.8266752,693.3589477539062,680.43701171875,720.1763916015625,629.3688354492188
1767330455.8305814,775.4928588867188,761.8629150390625,740.4443359375,889.0465698242188
1767330455.8344877,781.599853515625,785.5826416015625,741.0639038085938,870.3717041015625
1767330455.838394,698.0498046875,696.8992309570312,721.5040283203125,604.8526000976562
1767330455.8423002,670.435791015625,651.4069213867188,713.8924560546875,561.8385009765625
1767330455.8462064,747.6134033203125,741.948974609375,731.8592529296875,817.0023803710938
1767330455.8501127,790.7160034179688,810.7184448242188,745.4891967773438,917.1915893554688
1767330455.854019,728.407470703125,743.5421142578125,740.7984008789062,666.8070678710938
1767330455.8579252,669.8162841796875,656.7173461914062,715.0430297851562,525.2853393554688
1767330455.809413,720.7959594726562,712.122314453125,714.6890258789062,746.374267578125
1767330455.8133192,791.5125732421875,808.063232421875,741.77197265625,927.90087890625
1767330455.8172255,744.5156860351562,756.2869873046875,730.089111328125,759.2077026367188
1767330455.8211317,668.5772094726562,653.796630859375,708.22802734375,536.5256958007812
1767330455.825038,700.6165161132812,689.3761596679688,716.7246704101562,659.1954956054688
1767330455.8289442,781.0687866210938,797.531005859375,739.1167602539062,907.3673706054688
1767330455.8328505,772.8377075195312,783.635498046875,741.0639038085938,843.642822265625
1767330455.8367567,689.9957275390625,675.0381469726562,722.9201049804688,585.2926635742188
1767330455.840663,686.012939453125,671.763427734375,720.264892578125,599.542236328125
1767330455.8445692,767.6158447265625,783.3699340820312,740.0018310546875,862.9371948242188
1767330455.8484755,789.2998657226562,812.488525390625,757.3490600585938,889.2235717773438
1767330455.8523817,705.9268798828125,702.12109375,730.443115234375,644.0609130859375
1767330455.856288,660.6116333007812,653.796630859375,707.697021484375,559.2717895507812
1767330455.8601942,733.8948974609375,745.9317626953125,730.7971801757812,787.8837890625
1767330455.943049,788.1492919921875,803.5494384765625,748.6754760742188,940.9113159179688
1767330455.9469552,731.0626831054688,725.1327514648438,730.6201782226562,735.3109741210938
1767330455.9508615,668.8427124023438,656.0977783203125,713.98095703125,541.2164916992188
1767330455.9547677,717.875244140625,724.6902465820312,726.9028930664062,707.7855224609375
1767330455.958674,793.9022216796875,806.027587890625,748.6754760742188,932.9457397460938
1767330455.9625802,759.561767578125,753.4547729492188,736.2845458984375,809.3023071289062
1767330455.9664865,675.9232177734375,664.6829223632812,709.8211669921875,549.2705688476562
1767330455.9703927,692.3853759765625,693.801513671875,717.4326782226562,620.9607543945312
1767330455.974299,774.8733520507812,790.7160034179688,741.8604736328125,896.215576171875
1767330455.9782052,782.7504272460938,783.7239990234375,753.7203369140625,852.2279052734375
1767330455.9301307,694.7750854492188,681.3220825195312,723.7166748046875,591.3995971679688
1767330455.934037,669.2852172851562,676.9852905273438,712.8303833007812,561.927001953125
1767330455.9379432,753.5433349609375,767.52734375,736.8156127929688,820.0115966796875
1767330455.9418495,788.414794921875,788.7688598632812,738.5857543945312,914.6249389648438
1767330455.9457557,712.8303833007812,708.7590942382812,719.2913208007812,661.6737060546875
1767330455.949662,665.5679931640625,663.7093505859375,707.8740234375,519.7979736328125
1767330455.9535682,728.4959716796875,727.7879638671875,726.5488891601562,739.0282592773438
1767330455.9574745,790.1849365234375,785.4940795898438,742.5685424804688,926.6618041992188
1767330455.9613807,744.16162109375,738.7627563476562,730.1776123046875,748.9409790039062
1767330455.965287,666.1875,676.4542236328125,710.440673828125,527.3209838867188
1767330455.9691932,701.0590209960938,718.229248046875,730.6201782226562,645.9195556640625
1767330455.9730995,779.8297119140625,781.1572875976562,747.1708374023438,907.6329345703125
1767330455.9770057,754.33984375,757.0835571289062,732.0362548828125,841.607177734375
1767330455.980912,670.7898559570312,684.6853637695312,720.7074584960938,563.5201416015625
1767330455.9804978,673.4450073242188,681.4990844726562,720.7074584960938,593.0812377929688
1767330455.984404,759.2962036132812,756.9950561523438,736.4615478515625,874.5315551757812
1767330455.9883103,775.669921875,774.7848510742188,741.4179077148438,906.4822998046875
1767330455.9922166,697.7843017578125,703.2716674804688,725.2212524414062,632.5551147460938
1767330455.9961228,671.0553588867188,668.22314453125,718.05224609375,549.1820678710938
1767330456.000029,744.6926879882812,737.7891845703125,736.8156127929688,804.1689453125
1767330456.0039353,792.5746459960938,794.167724609375,753.3662719726562,939.583740234375
1767330456.0078416,725.4867553710938,743.984619140625,734.6914672851562,714.8660278320312
1767330456.093761,661.2311401367188,684.331298828125,722.5661010742188,514.8416137695312
1767330456.0976672,711.9453125,710.8832397460938,732.124755859375,706.9889526367188
1767330456.0650654,781.1572875976562,779.0331420898438,736.1075439453125,946.6642456054688
1767330456.0689716,750.5341186523438,767.9698486328125,736.8156127929688,783.1044311523438
1767330456.072878,677.3392944335938,683.0037231445312,725.8408203125,533.5164794921875
1767330456.0767841,690.3497314453125,673.97607421875,716.1051025390625,645.8310546875
1767330456.0806904,772.8377075195312,764.6951293945312,735.1339721679688,901.7030029296875
1767330456.0845966,775.3158569335938,784.6975708007812,746.9938354492188,860.9015502929688
1767330456.088503,689.9957275390625,691.765869140625,723.982177734375,593.0812377929688
1767330456.0924091,671.4978637695312,657.69091796875,712.5648803710938,570.6891479492188
1767330456.0963154,752.7467651367188,752.3927001953125,733.9833984375,833.3760375976562
1767330456.1002216,785.4940795898438,806.7356567382812,739.4707641601562,907.9869384765625
1767330456.0624475,721.76953125,733.1868286132812,730.26611328125,644.5919799804688
1767330456.0663538,671.2323608398438,652.468994140625,716.2821044921875,525.2853393554688
1767330456.07026,722.9201049804688,713.803955078125,724.0706787109375,763.5445556640625
1767330456.0741663,787.7952880859375,802.7528686523438,745.0466918945312,928.1663818359375
1767330456.0780725,740.9754028320312,745.2236938476562,732.2132568359375,745.1351928710938
1767330456.0819788,670.2587890625,652.2034912109375,715.2200317382812,537.4992065429688
1767330456.085885,705.5728759765625,694.8635864257812,722.9201049804688,674.153076171875
1767330456.0897913,789.8309326171875,804.7885131835938,748.055908203125,918.4306640625
1767330456.0936975,771.5986328125,779.7412109375,745.9317626953125,831.9599609375
1767330456.0976038,684.331298828125,663.0897827148438,717.6097412109375,571.4856567382812
1767330456.10151,682.2071533203125,668.6657104492188,718.3177490234375,606.4456787109375
1767330456.1054163,763.81005859375,779.918212890625,741.948974609375,874.4429931640625
1767330456.1093225,785.4055786132812,808.6828002929688,752.30419921875,879.1338500976562
1767330456.1132288,706.8119506835938,695.3060913085938,731.6822509765625,624.5010375976562
1767330456.123624,668.7542114257812,648.9287719726562,709.9981689453125,566.0867919921875
1767330456.1275303,744.4271240234375,751.1536254882812,730.26611328125,802.0447998046875
1767330456.1314366,792.5746459960938,804.5230102539062,744.6041870117188,928.9629516601562
1767330456.1353428,721.946533203125,721.3269653320312,724.0706787109375,705.4843139648438
1767330456.139249,661.8507080078125,657.1598510742188,713.1843872070312,526.9669799804688
1767330456.1431553,719.73388671875,731.3281860351562,734.4259033203125,712.476318359375
1767330456.1920512,792.2205810546875,809.2138061523438,750.8881225585938,927.9893798828125
1767330456.1959574,751.3306274414062,747.4363403320312,734.9569702148438,788.060791015625
1767330456.1998637,670.1702880859375,656.7173461914062,712.9188842773438,538.38427734375
1767330456.20377,692.473876953125,693.3589477539062,715.7510986328125,630.8734741210938
1767330456.2076762,783.0159301757812,798.239013671875,748.9409790039062,884.001708984375
1767330456.2115824,778.5021362304688,779.2101440429688,752.0386962890625,851.4313354492188
1767330456.2154887,683.8887939453125,676.01171875,716.0166015625,594.8513793945312
1767330456.219395,670.3472900390625,675.4806518554688,715.5740966796875,563.962646484375
1767330456.2233012,758.6766967773438,770.27099609375,736.9041137695312,833.818603515625
1767330456.2272074,787.1757202148438,791.2470092773438,741.6834716796875,910.9076538085938
1767330456.2311137,710.263671875,708.1395263671875,725.9293212890625,652.9115600585938
1767330456.23502,669.90478515625,671.4093627929688,712.122314453125,526.5244750976562
1767330456.1867807,739.2937622070312,740.6213989257812,730.26611328125,761.6859130859375
1767330456.190687,796.8229370117188,789.2998657226562,745.666259765625,940.46875
1767330456.1945932,739.4707641601562,734.6914672851562,730.6201782226562,744.8696899414062
1767330456.1984994,667.9576416015625,674.8611450195312,714.7775268554688,535.1980590820312
1767330456.2024057,715.2200317382812,730.0006103515625,734.6029663085938,678.4898681640625
1767330456.206312,792.0435791015625,790.1849365234375,750.6226196289062,924.7146606445312
1767330456.2102182,757.703125,753.1007690429688,733.3638305664062,836.1197509765625
1767330456.2141244,674.5071411132812,684.5968627929688,719.0258178710938,565.998291015625
1767330456.2180307,685.9244384765625,689.730224609375,722.12353515625,615.9158935546875
1767330456.221937,764.6951293945312,760.0927734375,739.0282592773438,887.89599609375
1767330456.2258432,769.739990234375,772.7492065429688,741.77197265625,888.8695678710938
1767330456.2297494,689.8187255859375,702.8291625976562,726.1063232421875,615.1193237304688
1767330456.2336557,665.1254272460938,677.693359375,722.300537109375,553.5189208984375
1767330456.237562,737.0811157226562,744.2501220703125,732.3017578125,807.7977294921875
1767330456.241161,776.7319946289062,792.30908203125,739.2052612304688,920.0238037109375
1767330456.2450674,713.7154541015625,737.2581176757812,728.053466796875,689.3761596679688
1767330456.2489736,663.620849609375,678.9324340820312,724.8672485351562,513.3369750976562
1767330456.2528799,721.0614624023438,710.8832397460938,732.6558227539062,719.556884765625
1767330456.256786,783.1929321289062,777.882568359375,737.7891845703125,939.2296752929688
1767330456.2606924,744.4271240234375,759.1192016601562,735.2224731445312,771.8641357421875
1767330456.3208632,669.90478515625,676.7197875976562,717.4326782226562,537.2337036132812
1767330456.3247695,693.8900146484375,681.7646484375,721.4154663085938,646.008056640625
1767330456.3286757,777.70556640625,776.200927734375,745.2236938476562,898.6052856445312
1767330456.332582,771.8641357421875,786.9987182617188,741.6834716796875,842.315185546875
1767330456.3364882,692.7394409179688,695.0405883789062,721.76953125,575.9110107421875
1767330456.3403945,682.2071533203125,665.3024291992188,715.3085327148438,579.0972290039062
1767330456.302358,765.3146362304688,757.0835571289062,728.4959716796875,841.6956787109375
1767330456.3062642,794.5217895507812,811.1609497070312,744.338623046875,892.0557861328125
1767330456.3101704,710.9717407226562,731.3281860351562,717.9637451171875,666.364501953125
1767330456.3140767,668.046142578125,666.1875,711.1487426757812,543.960205078125
1767330456.317983,744.4271240234375,729.8236083984375,743.0110473632812,753.4547729492188
1767330456.3218892,791.8665771484375,802.4873046875,746.9053344726562,936.04345703125
1767330456.3257954,729.735107421875,750.1800537109375,734.7799682617188,732.124755859375
1767330456.3297017,659.1069946289062,654.5046997070312,715.9281005859375,534.0474853515625
1767330456.333608,698.9348754882812,694.5980834960938,726.5488891601562,690.26123046875
1767330456.3375142,774.9618530273438,798.1505126953125,748.409912109375,916.218017578125
1767330456.3414204,750.6226196289062,775.3158569335938,743.630615234375,808.5942993164062
1767330456.3453267,668.3116455078125,669.3737182617188,718.9373168945312,558.6522827148438
1767330456.349233,673.5335693359375,672.471435546875,717.4326782226562,609.1893920898438
1767330456.3531392,756.9950561523438,770.9790649414062,735.7535400390625,870.0177001953125
1767330456.312111,773.1032104492188,799.3010864257812,749.4719848632812,857.0072631835938
1767330456.3160172,691.765869140625,692.2083740234375,726.6373901367188,600.0732421875
1767330456.3199234,659.9920654296875,648.220703125,710.263671875,565.998291015625
1767330456.3238297,738.231689453125,753.1892700195312,733.4523315429688,812.2230224609375
1767330456.327736,780.9802856445312,801.5137939453125,744.6041870117188,917.3685913085938
1767330456.3316422,710.9717407226562,706.6349487304688,726.9028930664062,685.2163696289062
1767330456.3355484,656.2747802734375,644.8574829101562,716.193603515625,528.383056640625
1767330456.3394547,719.4683227539062,722.9201049804688,729.55810546875,724.7787475585938
1767330456.343361,796.7344360351562,807.709228515625,750.7111206054688,922.5020141601562
1767330456.3472672,753.6318359375,752.2156982421875,741.0639038085938,767.2617797851562
1767330456.3511734,669.6392822265625,662.0277099609375,718.40625,532.27734375
1767330456.3550797,695.4830932617188,700.6165161132812,723.8936767578125,648.397705078125
1767330456.4477355,787.0872192382812,803.7264404296875,754.2513427734375,890.9937133789062
1767330456.4516418,778.3250732421875,769.2089233398438,749.0294799804688,837.2703247070312
1767330456.455548,687.2520141601562,671.2323608398438,713.626953125,588.6559448242188
1767330456.4594543,684.4197998046875,685.3933715820312,714.7775268554688,583.611083984375
1767330456.4633605,768.8549194335938,776.6434936523438,737.1696166992188,855.2371215820312
1767330456.4672668,792.2205810546875,787.7952880859375,744.7811889648438,912.8547973632812
1767330456.471173,713.0958862304688,695.3945922851562,723.7166748046875,652.114990234375
1767330456.4750793,673.1795043945312,663.7093505859375,713.0073852539062,543.1636352539062
1767330456.4672694,750.6226196289062,747.0823364257812,739.1167602539062,786.7332153320312
1767330456.4711757,804.7885131835938,793.1941528320312,751.59619140625,947.1067504882812
1767330456.475082,741.3294067382812,732.3017578125,730.0006103515625,733.806396484375
1767330456.4789882,670.7898559570312,671.58642578125,709.3786010742188,533.5164794921875
1767330456.4828944,718.9373168945312,728.6730346679688,730.8856811523438,689.0221557617188
1767330456.4868007,793.4596557617188,791.5125732421875,751.4191284179688,926.7503051757812
1767330456.490707,760.269775390625,752.8352661132812,734.33740234375,827.4461059570312
1767330456.4946132,685.4818725585938,680.43701171875,718.229248046875,565.0247192382812
1767330456.4985194,697.6072998046875,685.658935546875,723.2741088867188,628.041259765625
1767330456.5024257,782.130859375,763.8985595703125,743.0110473632812,900.5524291992188
1767330456.506332,786.025146484375,781.3342895507812,743.5421142578125,887.0994262695312
1767330456.5102382,698.7578735351562,705.4843139648438,722.12353515625,609.0123901367188
1767330456.5141444,678.224365234375,674.4185791015625,718.9373168945312,565.5557861328125
1767330456.5180507,756.8180541992188,739.1167602539062,736.196044921875,831.4288940429688
1767330456.485188,792.0435791015625,784.16650390625,738.9397583007812,920.46630859375
1767330456.4890943,720.1763916015625,726.017822265625,720.7074584960938,678.7554321289062
1767330456.4930005,676.36572265625,683.5347900390625,717.6982421875,520.1519775390625
1767330456.4969068,737.0811157226562,731.3281860351562,736.1075439453125,736.4615478515625
1767330456.500813,791.1585083007812,785.3170776367188,742.6570434570312,946.3101806640625
1767330456.5047193,744.16162109375,752.7467651367188,728.053466796875,757.3490600585938
1767330456.5086255,671.6749267578125,677.0737915039062,708.405029296875,528.029052734375
1767330456.5125318,697.9613037109375,689.0221557617188,716.8131713867188,662.6472778320312
1767330456.516438,775.2273559570312,778.8561401367188,739.2052612304688,910.0225830078125
1767330456.5203443,760.44677734375,775.9354248046875,739.6478271484375,827.3576049804688
1767330456.5700235,684.0657958984375,686.4554443359375,720.44189453125,566.17529296875
1767330456.5739298,682.6497192382812,670.3472900390625,716.193603515625,594.143310546875
1767330456.577836,762.6594848632812,760.1812744140625,737.3466186523438,859.2199096679688
1767330456.5817423,787.3527221679688,796.1148681640625,742.7455444335938,900.286865234375
1767330456.5856485,710.1751708984375,718.6718139648438,731.59375,634.4136962890625
1767330456.5895548,671.58642578125,659.6380615234375,721.6810302734375,546.0843505859375
1767330456.593461,737.877685546875,727.9649658203125,727.699462890625,807.0896606445312
1767330456.5973673,790.8045043945312,806.027587890625,744.7811889648438,938.6986694335938
1767330456.5652552,734.33740234375,742.5685424804688,733.0983276367188,722.6546020507812
1767330456.5691614,668.3116455078125,648.8402709960938,716.5476684570312,544.0487060546875
1767330456.5730677,715.4855346679688,702.8291625976562,726.9913940429688,719.9993896484375
1767330456.576974,790.096435546875,801.779296875,745.1351928710938,933.2997436523438
1767330456.5808802,760.0927734375,771.2445678710938,741.8604736328125,803.3723754882812
1767330456.5847864,678.8439331054688,662.47021484375,720.087890625,559.537353515625
1767330456.5886927,695.3060913085938,674.2415771484375,721.6810302734375,631.4044799804688
1767330456.592599,779.7412109375,790.450439453125,741.594970703125,895.1535034179688
1767330456.5965052,785.0515747070312,809.8333740234375,751.773193359375,858.5119018554688
1767330456.6004114,699.0233764648438,695.3060913085938,730.443115234375,591.8421630859375
1767330456.6043177,673.8875732421875,654.9472045898438,709.0245971679688,580.3363037109375
1767330456.608224,754.6054077148438,761.597412109375,736.2845458984375,833.1990356445312
1767330456.567013,791.955078125,816.2943115234375,750.7996215820312,916.3065185546875
1767330456.5709193,710.440673828125,713.8924560546875,724.0706787109375,668.1346435546875
1767330456.5748255,654.7702026367188,647.689697265625,710.1751708984375,527.4094848632812
1767330456.5787318,726.2833251953125,732.7443237304688,729.2925415039062,742.6570434570312
1767330456.582638,794.8757934570312,806.5586547851562,746.5513305664062,927.9893798828125
1767330456.5865443,742.6570434570312,738.231689453125,735.2224731445312,757.6146240234375
1767330456.5904505,666.5415649414062,657.69091796875,714.157958984375,536.8796997070312
1767330456.5943568,699.2003784179688,703.7142333984375,721.4154663085938,670.081787109375
1767330456.598263,787.7952880859375,805.2310180664062,755.0479125976562,909.93408203125
1767330456.6021693,774.4307861328125,775.5814208984375,749.6490478515625,838.243896484375
1767330456.6060755,680.7025756835938,668.6657104492188,717.0786743164062,590.8685913085938
1767330456.6099818,676.9852905273438,681.2335815429688,718.6718139648438,603.1709594726562
1767330456.6927178,766.5537719726562,780.5377807617188,738.7627563476562,872.5844116210938
1767330456.696624,785.1400756835938,786.5562133789062,744.6041870117188,909.6685791015625
1767330456.7005303,701.944091796875,696.1026611328125,726.9028930664062,640.7861938476562
1767330456.7044365,671.1438598632812,671.2323608398438,714.0694580078125,555.64306640625
1767330456.7083428,750.1800537109375,761.5089111328125,733.806396484375,806.4700927734375
1767330456.712249,796.38037109375,804.8770141601562,749.91455078125,943.1239624023438
1767330456.7161553,724.336181640625,723.628173828125,730.5316772460938,714.3349609375
1767330456.7200615,660.08056640625,655.832275390625,717.1671752929688,522.7186889648438
1767330456.7239678,713.626953125,721.0614624023438,727.1683959960938,733.0983276367188
1767330456.727874,789.3883666992188,804.6115112304688,741.8604736328125,942.2388916015625
1767330456.67942,757.3490600585938,761.4203491210938,745.7547607421875,767.9698486328125
1767330456.6833262,674.8611450195312,671.3208618164062,716.5476684570312,545.641845703125
1767330456.6872325,699.0233764648438,698.4923095703125,720.44189453125,638.4849853515625
1767330456.6911387,777.882568359375,778.1480712890625,739.4707641601562,897.1891479492188
1767330456.695045,774.165283203125,779.2101440429688,735.3109741210938,856.03369140625
1767330456.6989512,691.5003662109375,703.0061645507812,718.4947509765625,580.1593017578125
1767330456.7028575,675.65771484375,685.7474365234375,716.5476684570312,561.3959350585938
1767330456.7067637,757.1720581054688,754.9594116210938,730.9741821289062,832.7565307617188
1767330456.71067,793.7252197265625,791.4240112304688,740.09033203125,910.7306518554688
1767330456.7145762,720.7959594726562,727.9649658203125,731.6822509765625,665.4794311523438
1767330456.7184825,677.4277954101562,679.4634399414062,725.1327514648438,525.1083374023438
1767330456.7223887,743.0995483398438,724.9557495117188,734.160400390625,747.87890625
1767330456.726295,793.2826538085938,780.9802856445312,737.877685546875,940.8228149414062
1767330456.7302012,738.0546875,746.9053344726562,730.7971801757812,743.5421142578125
1767330456.7310145,666.7185668945312,675.4806518554688,713.4498901367188,524.311767578125
1767330456.7349207,701.590087890625,692.7394409179688,721.946533203125,675.3036499023438
1767330456.738827,781.953857421875,775.3158569335938,747.4363403320312,921.2628784179688
1767330456.7427332,766.2882080078125,776.200927734375,744.2501220703125,825.3219604492188
1767330456.7466395,681.8531494140625,692.0313720703125,721.4154663085938,560.7764282226562
1767330456.7505457,680.7025756835938,672.8255004882812,719.4683227539062,609.4548950195312
1767330456.754452,763.7215576171875,763.2789916992188,739.2937622070312,880.3729248046875
1767330456.7583582,775.5814208984375,792.0435791015625,741.77197265625,895.2420043945312
1767330456.8438702,701.3245239257812,713.0073852539062,734.4259033203125,617.7745361328125
1767330456.8477764,674.5071411132812,654.6817016601562,726.2833251953125,547.8544921875
1767330456.8225114,736.4615478515625,715.5740966796875,727.2568969726562,817.533447265625
1767330456.8264177,778.1480712890625,794.0792236328125,741.0639038085938,930.29052734375
1767330456.830324,715.3085327148438,740.5328979492188,730.6201782226562,700.9705200195312
1767330456.8342302,658.9299926757812,661.2311401367188,714.2464599609375,541.3934936523438
1767330456.8381364,716.4591064453125,710.440673828125,727.0798950195312,731.0626831054688
1767330456.8420427,784.8745727539062,795.2297973632812,746.1087646484375,931.4411010742188
1767330456.845949,745.9317626953125,759.915771484375,736.01904296875,781.5113525390625
1767330456.8498552,665.5679931640625,664.9484252929688,712.2108154296875,546.5269165039062
1767330456.8537614,688.6681518554688,687.9600830078125,720.9729614257812,642.9103393554688
1767330456.8576677,771.5986328125,787.3527221679688,744.7811889648438,901.7030029296875
1767330456.861574,773.63427734375,799.2125854492188,748.4984130859375,843.5543212890625
1767330456.8654802,693.1819458007812,690.26123046875,727.2568969726562,575.4684448242188
1767330456.8167472,671.3208618164062,653.7081298828125,711.9453125,583.8765869140625
1767330456.8206534,756.021484375,758.4111328125,734.8684692382812,841.2531127929688
1767330456.8245597,792.2205810546875,805.3195190429688,744.8696899414062,904.9777221679688
1767330456.828466,717.0786743164062,699.2888793945312,719.6453857421875,658.221923828125
1767330456.8323722,672.0289306640625,639.547119140625,708.5820922851562,537.5877685546875
1767330456.8362784,738.231689453125,736.4615478515625,726.8143920898438,762.482421875
1767330456.8401847,799.8321533203125,811.780517578125,748.4984130859375,934.36181640625
1767330456.844091,743.7191162109375,732.3017578125,733.8948974609375,749.3834838867188
1767330456.8479972,669.55078125,652.114990234375,712.6533813476562,538.7383422851562
1767330456.8519034,706.369384765625,710.1751708984375,723.2741088867188,686.9865112304688
1767330456.8558097,785.3170776367188,808.7713012695312,749.8260498046875,914.182373046875
1767330456.859716,766.376708984375,763.0134887695312,742.7455444335938,815.6748046875
1767330456.8636222,676.5427856445312,656.36328125,707.0774536132812,574.5834350585938
1767330456.8675284,682.0301513671875,677.4277954101562,714.2464599609375,616.181396484375
1767330456.9110005,770.8020629882812,779.6527099609375,740.09033203125,882.320068359375
1767330456.9149067,777.70556640625,780.0067138671875,740.8869018554688,889.3120727539062
1767330456.918813,696.191162109375,686.18994140625,724.1591796875,618.1285400390625
1767330456.9227192,671.58642578125,665.2139282226562,718.40625,551.4832153320312
1767330456.9271102,748.1444091796875,751.2421264648438,737.7891845703125,806.6471557617188
1767330456.9310164,788.8573608398438,788.9458618164062,745.4006958007812,924.360595703125
1767330456.9349227,719.2028198242188,712.0338134765625,723.7166748046875,685.2163696289062
1767330456.938829,661.939208984375,650.7874145507812,704.2452392578125,517.5853271484375
1767330456.9427352,723.5396728515625,725.0442504882812,730.8856811523438,703.5372314453125
1767330456.9466414,790.9815063476562,790.0079345703125,755.1364135742188,908.6065063476562
1767330456.9505477,738.5857543945312,732.8328247070312,730.089111328125,773.98828125
1767330456.954454,664.2403564453125,664.5944213867188,716.1051025390625,531.5693359375
1767330456.9583602,699.6429443359375,706.1923828125,731.3281860351562,637.4229125976562
1767330456.9622664,776.6434936523438,781.2457885742188,746.197265625,896.4810791015625
1767330456.9661727,760.3582763671875,762.2169189453125,740.8869018554688,836.6508178710938
1767330456.970079,680.1715087890625,685.3048706054688,721.5040283203125,565.7327880859375
1767330456.9574864,675.1266479492188,677.6048583984375,715.3970336914062,564.316650390625
1767330456.9613926,758.05712890625,748.055908203125,732.6558227539062,844.5278930664062
1767330456.965299,787.8837890625,783.7239990234375,744.9581909179688,905.7742919921875
1767330456.9692051,714.6005249023438,716.2821044921875,728.053466796875,657.1598510742188
1767330456.9731114,676.188720703125,680.3485107421875,728.23046875,545.3762817382812
1767330456.9770176,743.8961181640625,735.3109741210938,742.6570434570312,776.8204956054688
1767330456.980924,792.486083984375,779.564208984375,736.6386108398438,955.69189453125
1767330456.9848301,731.5052490234375,733.1868286132812,730.089111328125,745.7547607421875
1767330456.9887364,665.83349609375,666.6300659179688,721.2384643554688,540.242919921875
1767330456.9926426,710.7947387695312,701.1475219726562,726.017822265625,709.1130981445312
1767330456.996549,791.4240112304688,781.8653564453125,744.5156860351562,943.5665283203125
1767330457.0004551,765.0491333007812,764.8721313476562,739.8248291015625,824.5254516601562
1767330456.9749634,684.4197998046875,687.3405151367188,717.0786743164062,564.8477172851562
1767330456.9788697,695.1290893554688,685.1278686523438,717.2556762695312,631.8470458984375
1767330456.982776,774.9618530273438,773.1917114257812,740.1788330078125,897.1891479492188
1767330456.9866822,778.9446411132812,791.6895751953125,740.1788330078125,882.4085693359375
1767330456.9905884,700.6165161132812,712.29931640625,727.3453979492188,595.9134521484375
1767330456.9944947,678.4898681640625,665.7449951171875,721.5040283203125,543.606201171875
1767330456.998401,749.1179809570312,733.806396484375,726.9028930664062,822.7553100585938
1767330457.0023072,793.2826538085938,797.531005859375,739.3822631835938,923.3870239257812
1767330457.083941,727.87646484375,736.8156127929688,726.1063232421875,683.5347900390625
1767330457.0878472,665.4794311523438,662.0277099609375,713.1843872070312,533.5164794921875
1767330457.0825257,721.4154663085938,712.3878173828125,727.699462890625,741.1524047851562
1767330457.086432,794.7872924804688,809.4793090820312,747.6134033203125,924.2720947265625
1767330457.0903382,749.6490478515625,775.846923828125,744.6926879882812,748.8524780273438
1767330457.0942445,666.4530029296875,659.1954956054688,715.5740966796875,537.853271484375
1767330457.0981507,694.5095825195312,682.6497192382812,715.4855346679688,652.468994140625
1767330457.102057,779.4756469726562,792.6631469726562,738.40869140625,891.3477172851562
1767330457.1059632,766.2882080078125,789.6539306640625,729.735107421875,842.2266845703125
1767330457.1098695,678.04736328125,682.9152221679688,704.9533081054688,588.036376953125
1767330457.1137757,683.8887939453125,666.010498046875,729.1155395507812,558.4752197265625
1767330457.117682,763.633056640625,755.66748046875,744.6041870117188,840.1025390625
1767330457.0692773,778.236572265625,796.8229370117188,743.8076171875,906.1282958984375
1767330457.0731835,701.76708984375,701.944091796875,727.0798950195312,649.6368408203125
1767330457.0770898,659.9920654296875,645.9195556640625,708.9360961914062,551.57177734375
1767330457.080996,727.7879638671875,733.62939453125,733.9833984375,782.5734252929688
1767330457.0849023,788.23779296875,805.4080200195312,750.8881225585938,933.830810546875
1767330457.0888085,733.806396484375,725.3982543945312,732.8328247070312,736.2845458984375
1767330457.0927148,667.6036376953125,644.0609130859375,715.7510986328125,543.960205078125
1767330457.096621,708.6705932617188,709.8211669921875,722.5661010742188,709.6441650390625
1767330457.1005273,792.9286499023438,814.5242309570312,752.30419921875,928.2548828125
1767330457.1044335,769.739990234375,760.8008422851562,745.3121948242188,805.8505859375
1767330457.1083398,677.0737915039062,650.1678466796875,705.661376953125,570.3350830078125
1767330457.112246,689.2876586914062,684.0657958984375,713.3613891601562,631.1389770507812
1767330457.1161523,773.811279296875,789.1228637695312,743.984619140625,886.4798583984375
1767330457.1200585,777.2630004882812,780.0067138671875,746.020263671875,876.4786376953125
1767330457.1439428,692.2083740234375,685.2163696289062,724.1591796875,607.1537475585938
1767330457.147849,669.1082153320312,671.1438598632812,715.7510986328125,559.537353515625
1767330457.1517553,751.5076904296875,763.1019897460938,732.2132568359375,813.9931640625
1767330457.1556616,791.778076171875,790.3619384765625,742.7455444335938,913.1203002929688
1767330457.1595678,719.556884765625,710.3521728515625,723.3626098632812,671.4978637695312
1767330457.163474,667.4265747070312,662.7357788085938,703.0946655273438,527.5865478515625
1767330457.2040672,734.6914672851562,743.8961181640625,731.6822509765625,729.8236083984375
1767330457.2079735,802.6643676757812,805.7620849609375,755.3134155273438,919.3157348632812
1767330457.190012,745.4891967773438,741.2409057617188,724.1591796875,766.7307739257812
1767330457.1939182,672.2059326171875,675.0381469726562,708.1395263671875,530.1531982421875
1767330457.1978245,712.2108154296875,714.6890258789062,727.1683959960938,653.0885620117188
1767330457.2017307,788.8573608398438,780.1837158203125,738.7627563476562,915.510009765625
1767330457.205637,766.9962768554688,759.915771484375,734.6029663085938,834.7921752929688
1767330457.2095432,678.9324340820312,686.366943359375,716.4591064453125,562.0155029296875
1767330457.2134495,680.7025756835938,689.55322265625,718.3177490234375,584.4075927734375
1767330457.2173557,770.447998046875,761.1548461914062,740.4443359375,865.3268432617188
1767330457.221262,788.1492919921875,778.41357421875,742.3914794921875,900.286865234375
1767330457.2251682,703.625732421875,706.1038818359375,723.1856079101562,638.04248046875
1767330457.1948652,671.2323608398438,682.0301513671875,728.8500366210938,540.9509887695312
1767330457.1987715,747.1708374023438,744.0731201171875,751.4191284179688,786.4676513671875
1767330457.2026777,787.9722900390625,780.1837158203125,745.4006958007812,947.9033203125
1767330457.206584,726.19482421875,725.1327514648438,727.7879638671875,725.0442504882812
1767330457.2104902,669.3737182617188,668.22314453125,716.9901733398438,539.0038452148438
1767330457.2143965,715.5740966796875,712.2108154296875,727.3453979492188,723.628173828125
1767330457.2183027,785.671142578125,784.6090698242188,749.4719848632812,942.8584594726562
1767330457.222209,748.7639770507812,754.9594116210938,741.2409057617188,804.1689453125
1767330457.2261152,668.046142578125,679.3749389648438,719.73388671875,552.8108520507812
1767330457.2300215,690.26123046875,684.9508666992188,724.6902465820312,643.7069091796875
1767330457.2339277,774.6963500976562,780.3607177734375,745.666259765625,905.5972900390625
1767330457.237834,773.1032104492188,797.7080078125,745.1351928710938,874.8855590820312
1767330457.2126877,694.2440185546875,711.9453125,729.6466064453125,593.7008056640625
1767330457.216594,678.4013671875,671.1438598632812,725.1327514648438,558.5637817382812
1767330457.2205002,752.481201171875,738.7627563476562,730.9741821289062,839.3059692382812
1767330457.2244065,787.6182861328125,796.203369140625,739.6478271484375,916.8375854492188
1767330457.2283127,717.6982421875,733.62939453125,729.55810546875,664.7714233398438
1767330457.232219,664.9484252929688,660.3460693359375,718.229248046875,535.0210571289062
1767330457.2361252,727.5224609375,717.9637451171875,730.3546142578125,751.9501953125
1767330457.2400315,793.2826538085938,807.0011596679688,745.9317626953125,929.4054565429688
1767330457.3538687,746.2857666015625,767.9698486328125,735.3994750976562,749.737548828125
1767330457.357775,671.58642578125,664.2403564453125,713.0958862304688,536.2601318359375
1767330457.3091347,706.5464477539062,687.4290161132812,722.5661010742188,668.8427124023438
1767330457.313041,787.3527221679688,786.5562133789062,748.4984130859375,915.3329467773438
1767330457.3169472,766.19970703125,786.8217163085938,746.2857666015625,817.0023803710938
1767330457.3208535,679.1094360351562,684.2427978515625,723.1856079101562,550.1556396484375
1767330457.3247597,676.4542236328125,664.8599243164062,710.3521728515625,606.357177734375
1767330457.328666,759.0307006835938,771.775634765625,731.6822509765625,866.9199829101562
1767330457.3325722,776.200927734375,808.417236328125,743.3650512695312,882.7626342773438
1767330457.3364785,694.4210205078125,703.979736328125,720.087890625,626.8906860351562
1767330457.3403847,656.2747802734375,656.36328125,709.90966796875,548.6510620117188
1767330457.344291,728.3189697265625,747.2593383789062,731.0626831054688,792.3975830078125
1767330457.3481972,781.2457885742188,805.5850830078125,748.6754760742188,919.2272338867188
1767330457.3521035,717.4326782226562,719.3798217773438,732.2132568359375,703.802734375
1767330457.3560097,654.7702026367188,648.7517700195312,714.7775268554688,533.0739135742188
1767330457.359916,709.4671020507812,722.9201049804688,727.2568969726562,717.521240234375
1767330457.3121734,788.9458618164062,827.2691040039062,752.3927001953125,920.9973754882812
1767330457.3160796,751.59619140625,766.4652099609375,748.409912109375,774.7848510742188
1767330457.3199859,664.4173583984375,649.1057739257812,714.6890258789062,551.6602783203125
1767330457.323892,688.048583984375,683.0922241210938,715.839599609375,640.43212890625
1767330457.3277984,773.0147094726562,790.450439453125,736.6386108398438,895.2420043945312
1767330457.3317046,765.4916381835938,776.6434936523438,735.3994750976562,866.9199829101562
1767330457.3356109,681.4105834960938,674.7726440429688,714.7775268554688,596.5330200195312
1767330457.339517,669.0197143554688,669.6392822265625,714.3349609375,570.3350830078125
1767330457.3434234,752.30419921875,775.0503540039062,740.4443359375,832.4024658203125
1767330457.3473296,781.953857421875,792.9286499023438,746.5513305664062,907.2788696289062
1767330457.3512359,704.15673828125,702.12109375,725.663818359375,653.4425659179688
1767330457.355142,660.08056640625,660.7886352539062,709.90966796875,530.24169921875
1767330457.3590484,736.5501098632812,746.6398315429688,729.8236083984375,746.020263671875
1767330457.3629546,799.8321533203125,805.0540161132812,748.7639770507812,914.359375
1767330457.4137747,731.3281860351562,730.0006103515625,723.5396728515625,742.8340454101562
1767330457.417681,660.08056640625,663.1782836914062,708.22802734375,526.347412109375
1767330457.4580882,709.1130981445312,724.2476806640625,723.0971069335938,668.9312133789062
1767330457.4619944,788.8573608398438,795.9378662109375,743.0995483398438,917.899658203125
1767330457.4659007,764.4295654296875,757.703125,740.267333984375,819.4805297851562
1767330457.469807,681.0565795898438,676.188720703125,719.1143188476562,556.7051391601562
1767330457.4737132,690.7922973632812,684.5083618164062,719.1143188476562,603.3479614257812
1767330457.4776194,771.1560668945312,763.3674926757812,736.01904296875,874.4429931640625
1767330457.4296453,779.6527099609375,778.1480712890625,740.7098999023438,885.8603515625
1767330457.4335515,700.1739501953125,701.0590209960938,723.3626098632812,612.9951782226562
1767330457.4374578,672.8255004882812,676.4542236328125,713.2728881835938,552.8993530273438
1767330457.441364,741.6834716796875,744.6926879882812,722.2120361328125,834.172607421875
1767330457.4452703,792.9286499023438,799.2125854492188,750.091552734375,922.7675170898438
1767330457.4491765,732.8328247070312,733.5408935546875,747.2593383789062,671.8519287109375
1767330457.4530828,670.8783569335938,666.9840698242188,718.9373168945312,538.4727783203125
1767330457.456989,723.5396728515625,718.5833129882812,732.2132568359375,736.196044921875
1767330457.4608953,787.0872192382812,790.450439453125,746.2857666015625,934.36181640625
1767330457.4648015,742.47998046875,752.5697631835938,731.1511840820312,776.1124267578125
1767330457.4687078,667.0725708007812,669.8162841796875,715.1315307617188,538.9153442382812
1767330457.472614,693.1819458007812,680.6140747070312,717.9637451171875,649.725341796875
1767330457.4765203,773.3687133789062,768.7664184570312,735.0454711914062,903.1190795898438
1767330457.4804265,764.341064453125,777.0859985351562,735.6650390625,849.749755859375
1767330457.4799285,685.4818725585938,707.4314575195312,723.2741088867188,574.6719360351562
1767330457.4838347,680.6140747070312,681.8531494140625,732.3902587890625,565.5557861328125
1767330457.487741,755.1364135742188,748.055908203125,737.3466186523438,853.3784790039062
1767330457.4916472,779.2101440429688,795.3182983398438,738.231689453125,909.93408203125
1767330457.4955535,708.22802734375,728.4959716796875,735.5765380859375,649.6368408203125
1767330457.4994597,662.6472778320312,656.186279296875,718.3177490234375,543.2521362304688
1767330457.503366,729.2040405273438,723.628173828125,726.1063232421875,776.3779296875
1767330457.5072722,790.9815063476562,801.5137939453125,745.0466918945312,934.184814453125
1767330457.5111785,741.948974609375,749.1179809570312,729.55810546875,733.5408935546875
1767330457.5150847,674.153076171875,658.8414916992188,710.7947387695312,536.7026977539062
1767330457.518991,711.9453125,699.3773803710938,723.0086059570312,690.9692993164062
1767330457.5228972,787.3527221679688,796.0263671875,739.559326171875,925.688232421875
1767330457.5784976,763.81005859375,784.0780029296875,738.6742553710938,807.5322265625
1767330457.582404,682.0301513671875,686.366943359375,728.23046875,543.6947021484375
1767330457.5863101,684.6853637695312,672.7369995117188,719.2028198242188,622.6423950195312
1767330457.5902164,767.88134765625,772.6607055664062,740.267333984375,887.3649291992188
1767330457.5941226,779.564208984375,794.4332275390625,748.9409790039062,876.0361328125
1767330457.598029,693.0049438476562,683.80029296875,721.6810302734375,615.0308227539062
1767330457.5494351,662.9127807617188,648.6632690429688,713.0958862304688,563.0775756835938
1767330457.5533414,743.4535522460938,751.4191284179688,737.1696166992188,813.2850952148438
1767330457.5572476,788.9458618164062,812.488525390625,750.1800537109375,920.5548706054688
1767330457.561154,718.4947509765625,721.592529296875,729.3810424804688,694.6865844726562
1767330457.5650601,658.39892578125,649.1942749023438,710.440673828125,533.5164794921875
1767330457.5689664,716.193603515625,721.2384643554688,723.1856079101562,730.9741821289062
1767330457.5728726,786.8217163085938,812.134521484375,751.773193359375,917.1915893554688
1767330457.576779,746.2857666015625,751.773193359375,747.87890625,752.6582641601562
1767330457.5806851,663.974853515625,643.79541015625,713.3613891601562,543.783203125
1767330457.5845914,692.3853759765625,688.6681518554688,715.66259765625,650.7874145507812
1767330457.5884976,782.2193603515625,791.955078125,740.5328979492188,896.3040771484375
1767330457.592404,773.811279296875,771.4215698242188,737.70068359375,847.2715454101562
1767330457.5963101,685.7474365234375,682.7382202148438,716.7246704101562,583.8765869140625
1767330457.6002164,669.2852172851562,679.72900390625,712.476318359375,579.4512329101562
1767330457.5600343,750.8881225585938,772.6607055664062,736.8156127929688,839.925537109375
1767330457.5639405,773.811279296875,786.7332153320312,743.1880493164062,894.6224975585938
1767330457.5678468,699.2003784179688,692.5624389648438,722.8316040039062,641.0516967773438
1767330457.571753,661.0541381835938,655.5667724609375,716.1051025390625,541.924560546875
1767330457.5756593,729.735107421875,751.1536254882812,736.01904296875,768.2353515625
1767330457.5795655,790.5390014648438,804.5230102539062,754.162841796875,918.07666015625
1767330457.5834718,731.770751953125,721.8580322265625,728.407470703125,738.6742553710938
1767330457.587378,660.7886352539062,660.7886352539062,711.3257446289062,538.1187744140625
1767330457.5912843,706.369384765625,720.7959594726562,730.1776123046875,692.9164428710938
1767330457.5951905,786.025146484375,788.23779296875,740.5328979492188,931.2640991210938
1767330457.5990968,754.33984375,750.2685546875,733.0983276367188,811.0724487304688
1767330457.603003,677.2507934570312,668.7542114257812,720.087890625,556.7051391601562
1767330457.6823988,699.3773803710938,695.1290893554688,722.4775390625,621.0492553710938
1767330457.686305,778.1480712890625,781.3342895507812,743.630615234375,889.1350708007812
1767330457.6902113,780.272216796875,781.6883544921875,747.2593383789062,878.6028442382812
1767330457.6941175,699.4658813476562,696.3681640625,725.663818359375,608.2158203125
1767330457.6980238,674.5071411132812,683.3577270507812,718.8488159179688,552.8108520507812
1767330457.70193,757.4375610351562,756.2869873046875,744.6926879882812,810.5414428710938
1767330457.7058363,793.2826538085938,775.3158569335938,745.3121948242188,931.5296630859375
1767330457.7097425,719.0258178710938,709.2901000976562,726.371826171875,687.694580078125
1767330457.7136488,669.6392822265625,668.046142578125,720.6189575195312,532.454345703125
1767330457.717555,727.1683959960938,722.5661010742188,729.4695434570312,748.23291015625
1767330457.6875653,795.4953002929688,789.742431640625,745.4006958007812,939.4951782226562
1767330457.6914716,749.4719848632812,751.6846923828125,736.373046875,763.5445556640625
1767330457.6953778,671.6749267578125,680.5255737304688,717.3441772460938,533.4279174804688
1767330457.699284,701.3245239257812,698.7578735351562,720.5304565429688,662.5587768554688
1767330457.7031903,779.2986450195312,772.129638671875,738.9397583007812,906.6593627929688
1767330457.7070966,765.668701171875,769.6514892578125,738.40869140625,833.3760375976562
1767330457.7110028,687.2520141601562,704.15673828125,725.1327514648438,562.6350708007812
1767330457.714909,690.1727294921875,689.2876586914062,731.8592529296875,578.1236572265625
1767330457.7188153,764.7836303710938,756.1099853515625,738.4971923828125,868.424560546875
1767330457.7227216,783.3699340820312,791.2470092773438,735.6650390625,902.0570068359375
1767330457.7266278,708.405029296875,722.4775390625,722.8316040039062,631.758544921875
1767330457.730534,664.9484252929688,661.585205078125,713.1843872070312,547.50048828125
1767330457.7344403,734.2489013671875,725.1327514648438,728.5845336914062,789.3883666992188
1767330457.7383466,790.0079345703125,798.9470825195312,743.984619140625,927.4583129882812
1767330457.7120285,730.0006103515625,743.0110473632812,736.196044921875,715.1315307617188
1767330457.7159348,664.5944213867188,654.8587036132812,717.6097412109375,537.67626953125
1767330457.719841,716.37060546875,702.2095947265625,725.3097534179688,715.4855346679688
1767330457.7237473,791.60107421875,798.3275146484375,745.1351928710938,936.5745239257812
1767330457.7276535,756.6410522460938,783.5469970703125,741.77197265625,796.9114379882812
1767330457.7315598,681.7646484375,682.7382202148438,726.9913940429688,540.7739868164062
1767330457.735466,692.0313720703125,672.2059326171875,716.4591064453125,634.5907592773438
1767330457.7393723,774.0767822265625,776.6434936523438,739.4707641601562,897.3661499023438
1767330457.8488812,784.7860717773438,798.6815795898438,748.6754760742188,866.6544799804688
1767330457.8527875,701.4130249023438,689.0221557617188,721.4154663085938,602.5514526367188
1767330457.8119187,683.4462280273438,656.36328125,714.0694580078125,571.3086547851562
1767330457.815825,762.8364868164062,756.6410522460938,735.1339721679688,827.6231689453125
1767330457.8197312,791.60107421875,811.0724487304688,747.52490234375,912.9432983398438
1767330457.8236375,712.5648803710938,723.0971069335938,730.089111328125,675.4806518554688
1767330457.8275437,663.0897827148438,655.1242065429688,712.3878173828125,535.7291259765625
1767330457.83145,728.3189697265625,721.6810302734375,724.1591796875,745.666259765625
1767330457.8353562,798.8585815429688,815.4092407226562,748.5869750976562,923.2985229492188
1767330457.8392625,754.6054077148438,759.8272705078125,747.4363403320312,740.8869018554688
1767330457.8431687,672.29443359375,648.397705078125,716.5476684570312,540.1544189453125
1767330457.847075,709.5556640625,696.9877319335938,718.6718139648438,673.3565063476562
1767330457.8509812,794.7872924804688,802.3988037109375,741.77197265625,910.9076538085938
1767330457.8548875,767.9698486328125,761.8629150390625,738.1431884765625,832.9335327148438
1767330457.8070364,678.9324340820312,662.293212890625,718.5833129882812,573.1672973632812
1767330457.8109426,682.7382202148438,677.7818603515625,715.4855346679688,600.250244140625
1767330457.814849,767.704345703125,785.1400756835938,737.1696166992188,865.7694091796875
1767330457.8187551,786.7332153320312,792.7516479492188,748.3214111328125,900.10986328125
1767330457.8226614,708.6705932617188,697.7843017578125,731.4166870117188,639.8126220703125
1767330457.8265676,667.692138671875,665.7449951171875,715.3085327148438,551.92578125
1767330457.830474,739.913330078125,755.844482421875,736.1075439453125,787.9722900390625
1767330457.8343801,794.7872924804688,799.6551513671875,760.6238403320312,915.864013671875
1767330457.8382864,725.3982543945312,715.3085327148438,731.1511840820312,718.229248046875
1767330457.8421926,660.8771362304688,659.549560546875,709.732666015625,539.4463500976562
1767330457.846099,718.8488159179688,727.6109619140625,729.4695434570312,711.5028076171875
1767330457.8500051,793.1941528320312,794.8757934570312,743.2765502929688,932.6802368164062
1767330457.8539114,756.5525512695312,747.9674072265625,737.4351196289062,797.3539428710938
1767330457.8578176,675.3036499023438,670.435791015625,720.7959594726562,546.7924194335938
1767330457.8711205,693.3589477539062,696.3681640625,722.9201049804688,626.6251831054688
1767330457.8750267,776.9974975585938,772.6607055664062,738.40869140625,895.9500732421875
1767330457.878933,776.2894287109375,762.9249877929688,739.0282592773438,863.5567626953125
1767330457.8828392,690.26123046875,684.4197998046875,723.7166748046875,592.9042358398438
1767330457.9299612,671.2323608398438,691.4118041992188,721.1499633789062,559.71435546875
1767330457.9338675,756.6410522460938,772.129638671875,744.16162109375,811.4264526367188
1767330457.9377737,786.379150390625,784.7860717773438,741.3294067382812,907.4558715820312
1767330457.94168,709.9981689453125,706.5464477539062,717.2556762695312,661.8507080078125
1767330457.9455862,667.4265747070312,668.9312133789062,715.66259765625,526.6129760742188
1767330457.9494925,727.2568969726562,723.0971069335938,731.8592529296875,753.6318359375
1767330457.9533987,786.6447143554688,782.3963623046875,739.559326171875,926.1307373046875
1767330457.957305,735.3109741210938,742.3914794921875,726.5488891601562,737.523681640625
1767330457.9612112,664.5944213867188,676.5427856445312,714.3349609375,523.4266967773438
1767330457.9651175,701.8555908203125,703.8912353515625,727.7879638671875,673.6220703125
1767330457.9690237,776.02392578125,780.3607177734375,746.9053344726562,916.9260864257812
1767330457.97293,752.8352661132812,766.4652099609375,735.1339721679688,821.604736328125
1767330457.9479358,676.9852905273438,695.4830932617188,720.9729614257812,557.6787109375
1767330457.951842,688.9336547851562,685.658935546875,731.94775390625,592.107666015625
1767330457.9557483,763.633056640625,748.9409790039062,737.523681640625,880.6384887695312
1767330457.9596546,772.2181396484375,776.4664306640625,734.7799682617188,896.8351440429688
1767330457.9635608,699.9969482421875,707.697021484375,720.264892578125,623.5274658203125
1767330457.967467,671.2323608398438,659.9920654296875,716.6361694335938,561.0419311523438
1767330457.9713733,745.4891967773438,731.0626831054688,739.1167602539062,810.098876953125
1767330457.9752796,790.0079345703125,793.813720703125,744.8696899414062,924.2720947265625
1767330457.9501884,723.628173828125,734.6029663085938,730.6201782226562,694.155517578125
1767330457.9540946,666.6300659179688,656.00927734375,718.40625,534.0474853515625
1767330457.958001,720.264892578125,707.6085205078125,725.5753173828125,723.0971069335938
1767330457.9619071,791.60107421875,795.4953002929688,737.4351196289062,925.4226684570312
1767330457.9658134,754.8709106445312,771.0675659179688,732.3902587890625,771.4215698242188
1767330457.9697196,687.7830810546875,677.693359375,726.4603271484375,531.5693359375
1767330457.973626,709.1130981445312,674.0645751953125,722.4775390625,648.6632690429688
1767330457.9775321,787.6182861328125,775.5814208984375,732.478759765625,900.5524291992188
1767330457.9911032,782.3963623046875,795.9378662109375,737.7891845703125,846.386474609375
1767330457.9950094,693.4474487304688,687.4290161132812,716.5476684570312,585.2926635742188
1767330457.9989157,680.1715087890625,661.8507080078125,709.3786010742188,571.57421875
1767330458.002822,761.8629150390625,763.1019897460938,734.7799682617188,830.8978881835938
1767330458.0443306,797.7080078125,805.673583984375,748.409912109375,900.6409301757812
1767330458.0482368,722.9201049804688,712.6533813476562,724.8672485351562,659.0184936523438
1767330458.052143,674.4185791015625,651.1414184570312,705.3073120117188,543.783203125
1767330458.0560493,743.984619140625,734.160400390625,726.4603271484375,758.1456298828125
1767330458.0599556,808.5057983398438,820.8081665039062,755.844482421875,917.3685913085938
1767330458.0638618,755.4904174804688,750.445556640625,742.6570434570312,738.4971923828125
1767330458.067768,674.330078125,652.2919921875,710.5292358398438,547.9429931640625
1767330458.0716743,706.9889526367188,699.9969482421875,716.0166015625,695.837158203125
1767330458.0755806,786.9987182617188,801.1597290039062,743.0995483398438,925.5997314453125
1767330458.0794868,761.597412109375,766.9962768554688,734.33740234375,829.0392456054688
1767330458.083393,674.8611450195312,657.6024169921875,710.263671875,569.53857421875
1767330458.0872993,681.3220825195312,671.0553588867188,714.0694580078125,612.7296752929688
1767330458.0912056,775.1388549804688,788.23779296875,741.0639038085938,877.4522094726562
1767330458.0951118,791.6895751953125,793.813720703125,746.5513305664062,894.4454345703125
1767330458.0469356,707.1659545898438,688.3140869140625,722.8316040039062,632.2010498046875
1767330458.0508418,677.4277954101562,658.6644897460938,715.0430297851562,567.9454345703125
1767330458.054748,756.37548828125,764.8721313476562,735.842041015625,811.0724487304688
1767330458.0586543,807.6207275390625,810.7184448242188,751.773193359375,915.1559448242188
1767330458.0625606,735.4879760742188,712.29931640625,722.4775390625,707.9625244140625
1767330458.0664668,670.2587890625,653.796630859375,707.52001953125,542.45556640625
1767330458.070373,726.19482421875,729.2925415039062,726.6373901367188,721.6810302734375
1767330458.0742793,793.7252197265625,800.0091552734375,742.3914794921875,931.795166015625
1767330458.0781856,748.7639770507812,749.91455078125,738.5857543945312,780.9802856445312
1767330458.0820918,670.9668579101562,664.7714233398438,720.264892578125,542.45556640625
1767330458.085998,696.5452270507812,697.7843017578125,724.5132446289062,638.9275512695312
1767330458.0899043,778.6791381835938,781.5113525390625,742.0374755859375,896.5696411132812
1767330458.0938106,768.5894165039062,772.6607055664062,734.6029663085938,844.8818969726562
1767330458.0977168,682.0301513671875,685.7474365234375,717.0786743164062,579.8052978515625
1767330458.1110601,674.5956420898438,683.1807250976562,721.3269653320312,573.5213623046875
1767330458.1149664,767.52734375,764.1640625,746.374267578125,829.6588134765625
1767330458.1188726,791.4240112304688,778.236572265625,742.1259765625,909.4915161132812
1767330458.122779,710.440673828125,707.1659545898438,719.910888671875,658.3104248046875
1767330458.1932943,669.90478515625,672.7369995117188,713.2728881835938,534.31298828125
1767330458.1972005,737.4351196289062,732.8328247070312,731.59375,772.0411376953125
1767330458.2011068,793.4596557617188,786.6447143554688,743.5421142578125,934.9813842773438
1767330458.205013,731.59375,734.8684692382812,731.770751953125,729.55810546875
1767330458.2089193,665.656494140625,677.0737915039062,720.3533935546875,526.8784790039062
1767330458.2128255,713.2728881835938,709.5556640625,728.7615356445312,696.191162109375
1767330458.1728427,784.343505859375,778.5021362304688,748.055908203125,928.9629516601562
1767330458.176749,759.2962036132812,767.52734375,740.4443359375,813.63916015625
1767330458.1806552,681.587646484375,696.6337280273438,720.5304565429688,549.4475708007812
1767330458.1845615,694.8635864257812,690.7922973632812,728.5845336914062,596.7985229492188
1767330458.1884677,776.1124267578125,759.0307006835938,739.1167602539062,884.8867797851562
1767330458.192374,780.9802856445312,783.4584350585938,738.6742553710938,887.0109252929688
1767330458.1962802,703.3601684570312,715.839599609375,730.5316772460938,609.6319580078125
1767330458.2001865,678.4013671875,665.83349609375,726.2833251953125,564.316650390625
1767330458.2040927,753.7203369140625,736.1075439453125,741.6834716796875,824.5254516601562
1767330458.207999,790.450439453125,796.9114379882812,748.8524780273438,926.3077392578125
1767330458.2119052,719.73388671875,732.478759765625,732.7443237304688,684.8623657226562
1767330458.2158115,663.8863525390625,657.69091796875,715.7510986328125,535.817626953125
1767330458.1922548,711.1487426757812,701.944091796875,727.87646484375,734.33740234375
1767330458.196161,772.5722045898438,785.1400756835938,743.3650512695312,924.2720947265625
1767330458.2000673,738.5857543945312,767.52734375,735.3994750976562,758.4111328125
1767330458.2039735,669.6392822265625,674.5071411132812,727.1683959960938,520.5060424804688
1767330458.2078798,690.438232421875,675.65771484375,726.371826171875,656.9828491210938
1767330458.211786,769.3859252929688,781.5113525390625,743.0995483398438,911.8812255859375
1767330458.2156923,760.7123413085938,794.167724609375,744.8696899414062,836.38525390625
1767330458.2195985,682.2071533203125,686.9865112304688,721.2384643554688,581.1328735351562
1767330458.2235048,676.4542236328125,661.3196411132812,717.6982421875,590.1605224609375
1767330458.227411,756.9950561523438,756.2869873046875,739.1167602539062,849.0416870117188
1767330458.2313173,781.77685546875,794.5217895507812,749.2949829101562,894.7109985351562
1767330458.2352235,710.5292358398438,705.5728759765625,728.1419677734375,646.4505615234375
1767330458.2391298,672.8255004882812,653.9736328125,711.768310546875,547.0579223632812
1767330458.243036,743.8961181640625,736.9926147460938,731.6822509765625,782.130859375
