timestamp,tp9,af7,af8,tp10
1767330544.2915022,753.98583984375,762.482421875,743.984619140625,777.6170654296875
1767330544.2954085,670.9668579101562,667.869140625,721.1499633789062,573.1672973632812
1767330544.2993147,691.94287109375,687.6060791015625,717.6982421875,659.3724975585938
1767330544.303221,774.8733520507812,785.0515747070312,742.47998046875,877.1867065429688
1767330544.3071272,767.0847778320312,781.3342895507812,746.9938354492188,827.3576049804688
1767330544.3110335,679.906005859375,686.5440063476562,720.7074584960938,594.5858764648438
1767330544.2753587,665.656494140625,670.1702880859375,713.4498901367188,588.9214477539062
1767330544.279265,750.0030517578125,760.44677734375,738.40869140625,817.0023803710938
1767330544.2831712,773.98828125,791.955078125,741.1524047851562,891.790283203125
1767330544.2870774,694.5095825195312,712.2108154296875,724.1591796875,652.2034912109375
1767330544.2909837,657.513916015625,666.9840698242188,724.8672485351562,522.9841918945312
1767330544.29489,724.2476806640625,735.3994750976562,733.0098266601562,754.9594116210938
1767330544.2987962,784.9630737304688,793.99072265625,748.1444091796875,902.9420776367188
1767330544.3027024,725.5753173828125,726.19482421875,731.94775390625,724.336181640625
1767330544.3066087,660.257568359375,658.39892578125,707.7855224609375,547.3234252929688
1767330544.310515,711.59130859375,706.9889526367188,719.2028198242188,687.517578125
1767330544.3144212,791.5125732421875,782.3963623046875,742.47998046875,895.507568359375
1767330544.3183274,763.8985595703125,750.091552734375,736.6386108398438,800.09765625
1767330544.3222337,681.8531494140625,672.29443359375,716.2821044921875,576.0880126953125
1767330544.32614,696.8107299804688,697.1647338867188,721.4154663085938,630.7849731445312
1767330544.2847967,790.8045043945312,789.742431640625,750.6226196289062,861.3440551757812
1767330544.288703,798.6815795898438,779.7412109375,752.2156982421875,872.8499145507812
1767330544.2926092,708.6705932617188,688.9336547851562,720.7959594726562,646.0965576171875
1767330544.2965155,681.4990844726562,672.7369995117188,710.086669921875,584.8501586914062
1767330544.3004217,763.5445556640625,747.52490234375,730.1776123046875,818.5070190429688
1767330544.304328,804.7885131835938,782.3963623046875,742.302978515625,920.7318725585938
1767330544.3082342,730.26611328125,725.3097534179688,728.1419677734375,708.051025390625
1767330544.3121405,669.1967163085938,679.0209350585938,719.3798217773438,561.0419311523438
1767330544.3160467,726.9913940429688,726.5488891601562,730.3546142578125,743.2765502929688
1767330544.319953,794.3447265625,782.5734252929688,745.666259765625,925.7767333984375
1767330544.3238592,749.737548828125,742.9225463867188,742.9225463867188,778.8561401367188
1767330544.3277655,666.6300659179688,676.8967895507812,721.3269653320312,568.9190063476562
1767330544.426298,694.5980834960938,715.5740966796875,733.2753295898438,658.044921875
1767330544.4302042,778.236572265625,778.236572265625,749.2064819335938,892.2327880859375
1767330544.4341104,761.6859130859375,762.3939208984375,730.443115234375,847.0060424804688
1767330544.4380167,677.693359375,701.3245239257812,712.3878173828125,593.2582397460938
1767330544.441923,672.6484985351562,685.7474365234375,711.59130859375,598.8341674804688
1767330544.4458292,759.4732055664062,749.8260498046875,729.6466064453125,843.0232543945312
1767330544.4048817,788.8573608398438,775.3158569335938,738.1431884765625,883.4706420898438
1767330544.408788,715.3085327148438,714.3349609375,727.9649658203125,645.5655517578125
1767330544.4126942,678.04736328125,683.5347900390625,726.2833251953125,558.2982177734375
1767330544.4166005,750.445556640625,733.9833984375,732.3017578125,774.0767822265625
1767330544.4205067,805.7620849609375,781.5113525390625,741.594970703125,901.614501953125
1767330544.424413,743.0110473632812,740.3558349609375,730.5316772460938,716.5476684570312
1767330544.4283192,678.8439331054688,682.11865234375,721.4154663085938,533.0739135742188
1767330544.4322255,723.4511108398438,699.0233764648438,727.2568969726562,688.2255859375
1767330544.4361317,796.2918701171875,766.19970703125,732.3902587890625,907.9869384765625
1767330544.440038,767.52734375,760.9778442382812,733.806396484375,792.6631469726562
1767330544.4439442,684.7738647460938,682.7382202148438,721.0614624023438,572.2822265625
1767330544.4478505,694.8635864257812,680.8795776367188,718.8488159179688,640.5206909179688
1767330544.3999743,774.5193481445312,762.5709838867188,735.4879760742188,873.823486328125
1767330544.4038806,775.846923828125,784.6090698242188,740.267333984375,856.210693359375
1767330544.4077868,689.9072265625,705.3958129882812,723.80517578125,620.5182495117188
1767330544.411693,667.6036376953125,661.585205078125,718.6718139648438,590.8685913085938
1767330544.4155993,745.0466918945312,736.373046875,733.7178955078125,817.9759521484375
1767330544.4195056,784.0780029296875,791.0700073242188,744.0731201171875,903.1190795898438
1767330544.4234118,716.5476684570312,734.0718994140625,741.4179077148438,679.1979370117188
1767330544.427318,658.39892578125,655.6552734375,721.592529296875,551.6602783203125
1767330544.4312243,718.9373168945312,710.5292358398438,724.2476806640625,757.1720581054688
1767330544.4351306,786.025146484375,797.3539428710938,745.2236938476562,915.2444458007812
1767330544.4390368,730.1776123046875,745.9317626953125,730.5316772460938,758.7651977539062
1767330544.442943,650.7874145507812,658.8414916992188,710.7947387695312,562.1925048828125
1767330544.4468493,680.7025756835938,690.1727294921875,717.521240234375,668.4886474609375
1767330544.4507556,765.1376342773438,782.9274291992188,742.1259765625,886.5684204101562
1767330544.545327,754.7824096679688,772.7492065429688,740.7984008789062,824.17138671875
1767330544.5492332,669.2852172851562,677.693359375,716.9016723632812,591.0455932617188
1767330544.5531394,670.6128540039062,671.763427734375,720.44189453125,600.0732421875
1767330544.5570457,760.5353393554688,764.6066284179688,730.7086791992188,838.243896484375
1767330544.560952,793.0171508789062,793.4596557617188,741.6834716796875,862.0521240234375
1767330544.5648582,721.6810302734375,699.0233764648438,728.053466796875,637.865478515625
1767330544.5687644,679.4634399414062,657.3368530273438,705.0418090820312,570.6891479492188
1767330544.5726707,754.162841796875,744.6041870117188,725.4867553710938,775.846923828125
1767330544.576577,812.9310913085938,803.4608764648438,747.4363403320312,905.5087890625
1767330544.5804832,749.6490478515625,736.8156127929688,733.0983276367188,726.371826171875
1767330544.5322511,683.0922241210938,669.9932861328125,717.6982421875,560.245361328125
1767330544.5361574,731.5052490234375,725.0442504882812,730.9741821289062,706.9004516601562
1767330544.5400636,805.4080200195312,795.4067993164062,743.630615234375,904.4466552734375
1767330544.5439699,769.0319213867188,749.2949829101562,731.1511840820312,796.38037109375
1767330544.5478761,684.6853637695312,672.6484985351562,712.2108154296875,572.0167236328125
1767330544.5517824,696.8107299804688,697.6072998046875,715.9281005859375,639.1045532226562
1767330544.5556886,781.5113525390625,783.635498046875,748.6754760742188,863.7337646484375
1767330544.5595949,785.4940795898438,769.739990234375,751.4191284179688,856.6532592773438
1767330544.5635011,693.7130126953125,679.9945068359375,722.12353515625,634.0596923828125
1767330544.5674074,669.1082153320312,674.7726440429688,724.5132446289062,586.177734375
1767330544.5713136,745.0466918945312,754.9594116210938,744.338623046875,814.8782348632812
1767330544.5752199,776.9089965820312,780.09521484375,743.1880493164062,899.2247924804688
1767330544.5791261,704.6878051757812,715.5740966796875,718.8488159179688,679.9945068359375
1767330544.5830324,651.0529174804688,673.8875732421875,714.2464599609375,545.1992797851562
1767330544.5685172,716.1051025390625,733.5408935546875,737.523681640625,737.9661865234375
1767330544.5724235,777.528564453125,783.5469970703125,742.1259765625,905.9512939453125
1767330544.5763297,724.336181640625,733.1868286132812,730.0006103515625,745.7547607421875
1767330544.580236,651.2299194335938,670.3472900390625,717.6982421875,547.3234252929688
1767330544.5841422,690.8807983398438,709.8211669921875,730.8856811523438,649.0172729492188
1767330544.5880485,771.95263671875,767.0847778320312,746.7283325195312,874.7085571289062
1767330544.5919547,752.5697631835938,752.5697631835938,727.9649658203125,819.6575927734375
1767330544.595861,675.7462158203125,696.01416015625,710.1751708984375,573.0787963867188
1767330544.6427486,678.224365234375,690.8807983398438,716.6361694335938,590.6915893554688
1767330544.6466548,763.0134887695312,753.98583984375,733.0983276367188,835.5887451171875
1767330544.650561,791.1585083007812,778.0595703125,736.8156127929688,865.7694091796875
1767330544.6544673,715.5740966796875,718.1407470703125,726.9028930664062,626.8021850585938
1767330544.6583736,677.2507934570312,680.9680786132812,717.6097412109375,549.8016357421875
1767330544.6622798,749.6490478515625,730.443115234375,727.1683959960938,775.9354248046875
1767330544.666186,805.5850830078125,780.8032836914062,743.2765502929688,903.2075805664062
1767330544.6700923,742.1259765625,742.47998046875,731.3281860351562,705.3958129882812
1767330544.6739986,674.153076171875,687.1635131835938,703.3601684570312,562.9890747070312
1767330544.6779048,720.3533935546875,719.4683227539062,712.29931640625,733.7178955078125
1767330544.681811,801.4252319335938,790.7160034179688,753.4547729492188,889.8431396484375
1767330544.6857173,768.6779174804688,761.2433471679688,741.3294067382812,780.8917846679688
1767330544.6504488,681.7646484375,675.2151489257812,714.157958984375,584.7616577148438
1767330544.654355,698.6693725585938,679.6405029296875,720.7074584960938,660.7001342773438
1767330544.6582613,782.8389282226562,766.19970703125,735.7535400390625,894.0914306640625
1767330544.6621675,780.6262817382812,782.9274291992188,743.0995483398438,855.6796875
1767330544.6660738,693.4474487304688,702.47509765625,725.3097534179688,614.9423217773438
1767330544.66998,673.97607421875,663.2667846679688,717.6982421875,601.8433837890625
1767330544.6738863,752.127197265625,739.1167602539062,736.196044921875,830.5438842773438
1767330544.6777925,784.6975708007812,789.4768676757812,738.6742553710938,894.2684326171875
1767330544.6816988,716.37060546875,733.5408935546875,730.7086791992188,665.3024291992188
1767330544.685605,665.83349609375,664.7714233398438,721.946533203125,552.27978515625
1767330544.6895113,723.3626098632812,716.0166015625,726.017822265625,763.0134887695312
1767330544.6934175,785.4940795898438,799.4780883789062,743.4535522460938,909.757080078125
1767330544.6973238,738.7627563476562,751.3306274414062,738.0546875,742.9225463867188
1767330544.70123,667.6036376953125,660.9656372070312,725.663818359375,557.2361450195312
1767330544.6962545,700.5280151367188,689.2876586914062,726.8143920898438,674.6841430664062
1767330544.7001607,779.7412109375,785.2285766601562,738.8512573242188,881.5235595703125
1767330544.704067,764.5181274414062,776.02392578125,736.4615478515625,805.0540161132812
1767330544.7079732,681.587646484375,674.5956420898438,710.263671875,577.504150390625
1767330544.7118795,683.80029296875,673.1795043945312,710.086669921875,601.4008178710938
1767330544.7157857,767.0847778320312,766.6422729492188,735.1339721679688,837.3588256835938
1767330544.7702076,790.2734375,800.3631591796875,752.7467651367188,854.2635498046875
1767330544.774114,710.5292358398438,705.83837890625,732.9213256835938,634.8562622070312
1767330544.7780201,673.0025024414062,659.1954956054688,714.2464599609375,575.1144409179688
1767330544.7819264,754.2513427734375,753.808837890625,743.8961181640625,779.0331420898438
1767330544.7858326,804.0804443359375,801.779296875,748.6754760742188,915.1559448242188
1767330544.789739,734.6914672851562,723.1856079101562,719.2913208007812,724.6017456054688
1767330544.7936451,673.4450073242188,661.0541381835938,704.2452392578125,559.0947875976562
1767330544.7975514,724.7787475585938,724.6902465820312,722.3890380859375,718.4947509765625
1767330544.8014576,797.2654418945312,799.0355834960938,742.47998046875,913.5628662109375
1767330544.805364,761.597412109375,751.773193359375,730.5316772460938,794.6987915039062
1767330544.8092701,678.04736328125,670.081787109375,716.2821044921875,568.5650024414062
1767330544.8131764,695.2175903320312,692.3853759765625,723.4511108398438,643.8839111328125
1767330544.8170826,783.5469970703125,784.2550048828125,743.984619140625,863.822265625
1767330544.820989,785.9366455078125,772.129638671875,740.0018310546875,837.6243896484375
1767330544.81601,693.1819458007812,680.8795776367188,708.7590942382812,615.7388916015625
1767330544.8199162,674.5071411132812,683.0922241210938,708.22802734375,582.3719482421875
1767330544.8238225,757.703125,766.1112060546875,731.59375,813.7276611328125
1767330544.8277287,792.5746459960938,783.635498046875,739.1167602539062,889.3120727539062
1767330544.831635,720.8844604492188,716.6361694335938,722.3890380859375,672.3829345703125
1767330544.8355412,669.8162841796875,676.8967895507812,714.9545288085938,550.244140625
1767330544.8394475,734.9569702148438,733.7178955078125,729.735107421875,743.0995483398438
1767330544.8433537,795.4067993164062,781.8653564453125,741.3294067382812,907.0133666992188
1767330544.84726,737.2581176757812,730.443115234375,732.6558227539062,742.7455444335938
1767330544.8511662,660.7886352539062,669.8162841796875,705.7498779296875,550.421142578125
1767330544.8260403,702.8291625976562,715.5740966796875,721.592529296875,664.2403564453125
1767330544.8299465,787.8837890625,777.882568359375,747.52490234375,886.1258544921875
1767330544.8338528,764.7836303710938,752.9237670898438,730.6201782226562,824.4368896484375
1767330544.837759,683.0037231445312,688.402587890625,718.40625,581.929443359375
1767330544.8416653,689.8187255859375,691.3233032226562,724.336181640625,614.7653198242188
1767330544.8455715,773.7227783203125,759.6502685546875,739.6478271484375,861.5211181640625
1767330544.8494778,789.3883666992188,774.4307861328125,748.1444091796875,879.4878540039062
1767330544.853384,708.8475952148438,705.2188110351562,729.6466064453125,643.8839111328125
1767330544.9367402,679.6405029296875,681.7646484375,718.7603149414062,581.575439453125
1767330544.9406464,755.844482421875,743.3650512695312,731.3281860351562,808.7713012695312
1767330544.8924673,798.1505126953125,785.4940795898438,740.1788330078125,912.7662963867188
1767330544.8963735,732.9213256835938,738.3201904296875,730.443115234375,714.2464599609375
1767330544.9002798,677.9588623046875,689.3761596679688,722.5661010742188,557.1476440429688
1767330544.904186,730.6201782226562,719.8223876953125,738.40869140625,728.23046875
1767330544.9080923,798.1505126953125,779.3871459960938,748.5869750976562,934.9813842773438
1767330544.9119985,759.0307006835938,759.2962036132812,737.4351196289062,795.4953002929688
1767330544.9159048,682.5612182617188,687.87158203125,720.44189453125,577.0615844726562
1767330544.919811,706.369384765625,693.3589477539062,723.628173828125,668.1346435546875
1767330544.9237173,789.742431640625,772.2181396484375,741.6834716796875,893.2948608398438
1767330544.9276235,787.1757202148438,778.3250732421875,737.1696166992188,849.3071899414062
1767330544.9315298,701.0590209960938,697.9613037109375,721.0614624023438,608.4813232421875
1767330544.935436,682.9152221679688,668.046142578125,719.6453857421875,599.0996704101562
1767330544.9393423,764.7836303710938,746.6398315429688,733.806396484375,834.4381103515625
1767330544.9432485,792.0435791015625,799.0355834960938,746.4627685546875,891.0822143554688
1767330544.894704,713.803955078125,737.523681640625,740.09033203125,647.689697265625
1767330544.8986104,663.7093505859375,665.7449951171875,725.1327514648438,535.3750610351562
1767330544.9025166,724.0706787109375,717.521240234375,720.5304565429688,753.808837890625
1767330544.9064229,788.23779296875,803.7264404296875,732.7443237304688,895.7730712890625
1767330544.910329,737.70068359375,762.7479858398438,725.1327514648438,720.9729614257812
1767330544.9142354,663.3552856445312,667.51513671875,703.5372314453125,542.278564453125
1767330544.9181416,698.7578735351562,693.3589477539062,712.29931640625,675.3036499023438
1767330544.9220479,779.564208984375,784.6090698242188,736.9041137695312,882.2315673828125
1767330544.925954,759.1192016601562,776.4664306640625,733.8948974609375,796.203369140625
1767330544.9298604,675.4806518554688,681.587646484375,709.6441650390625,573.8753662109375
1767330544.9337666,683.0922241210938,674.330078125,715.4855346679688,617.68603515625
1767330544.9376729,766.6422729492188,766.6422729492188,736.6386108398438,857.0072631835938
1767330544.941579,785.7596435546875,804.0804443359375,746.6398315429688,857.538330078125
1767330544.9454854,707.8740234375,714.7775268554688,729.735107421875,622.0228271484375
1767330544.9969473,670.5243530273438,665.4794311523438,707.1659545898438,579.3627319335938
1767330545.0008535,746.9938354492188,747.4363403320312,728.5845336914062,799.3010864257812
1767330545.0711634,796.38037109375,793.99072265625,744.4271240234375,902.8535766601562
1767330545.0750697,729.735107421875,720.9729614257812,723.7166748046875,704.5108032226562
1767330545.078976,666.1875,661.8507080078125,708.8475952148438,555.7315673828125
1767330545.0828822,718.05224609375,721.8580322265625,724.7787475585938,721.946533203125
1767330545.0867884,793.813720703125,796.9999389648438,741.948974609375,907.0133666992188
1767330545.0906947,756.8180541992188,751.3306274414062,729.0270385742188,780.0067138671875
1767330545.042272,677.2507934570312,671.2323608398438,719.910888671875,561.75
1767330545.0461783,699.554443359375,696.5452270507812,723.80517578125,649.8138427734375
1767330545.0500846,786.2906494140625,792.7516479492188,740.1788330078125,869.4866333007812
1767330545.0539908,783.3699340820312,780.09521484375,743.1880493164062,828.1541748046875
1767330545.057897,693.8900146484375,682.8267211914062,716.5476684570312,610.6940307617188
1767330545.0618033,680.1715087890625,677.4277954101562,714.6005249023438,596.8870239257812
1767330545.0657096,764.2525634765625,765.9342041015625,734.0718994140625,832.5795288085938
1767330545.0696158,792.6631469726562,786.8217163085938,742.8340454101562,898.07421875
1767330545.073522,714.2464599609375,709.732666015625,725.7523193359375,668.9312133789062
1767330545.0774283,673.3565063476562,675.3921508789062,714.8660278320312,562.7235717773438
1767330545.0813346,742.6570434570312,744.2501220703125,730.443115234375,763.3674926757812
1767330545.0852408,799.1240844726562,786.5562133789062,742.47998046875,909.757080078125
1767330545.089147,745.3121948242188,733.9833984375,729.1155395507812,737.1696166992188
1767330545.0930533,673.0910034179688,674.6841430664062,707.2544555664062,556.7051391601562
1767330545.0522103,716.0166015625,720.3533935546875,730.7086791992188,684.2427978515625
1767330545.0561166,795.67236328125,781.1572875976562,758.7651977539062,892.5868530273438
1767330545.0600228,760.3582763671875,742.3914794921875,731.8592529296875,816.02880859375
1767330545.063929,672.3829345703125,672.7369995117188,707.8740234375,579.716796875
1767330545.0678353,685.5704345703125,695.3945922851562,719.910888671875,625.0320434570312
1767330545.0717416,768.5009155273438,766.7307739257812,738.8512573242188,866.3004150390625
1767330545.0756478,776.9974975585938,771.95263671875,734.5144653320312,863.2911987304688
1767330545.079554,696.2796630859375,708.051025390625,719.9993896484375,624.5895385742188
1767330545.0834603,672.8255004882812,683.623291015625,719.1143188476562,574.8489379882812
1767330545.0873666,751.1536254882812,742.1259765625,733.7178955078125,804.5230102539062
1767330545.0912728,793.1056518554688,783.9010009765625,744.8696899414062,902.7650756835938
1767330545.095179,728.053466796875,729.2925415039062,731.0626831054688,702.2095947265625
1767330545.1616035,673.1795043945312,683.0037231445312,723.0971069335938,550.5097045898438
1767330545.1655097,732.0362548828125,719.0258178710938,734.6914672851562,723.628173828125
1767330545.169416,794.167724609375,772.7492065429688,739.0282592773438,920.3778076171875
1767330545.1733222,744.9581909179688,752.127197265625,728.1419677734375,771.1560668945312
1767330545.1772285,669.8162841796875,682.47265625,715.0430297851562,559.4487915039062
1767330545.1811347,697.9613037109375,687.694580078125,721.0614624023438,662.5587768554688
1767330545.1630645,783.1929321289062,770.3594970703125,744.0731201171875,891.3477172851562
1767330545.1669707,775.9354248046875,780.5377807617188,744.8696899414062,839.8370361328125
1767330545.170877,688.4910888671875,698.5808715820312,723.628173828125,599.1881713867188
1767330545.1747832,673.1795043945312,668.5772094726562,715.3970336914062,600.0732421875
1767330545.1786895,754.6939086914062,747.6134033203125,729.735107421875,833.818603515625
1767330545.1825957,787.0872192382812,789.91943359375,742.9225463867188,886.037353515625
1767330545.186502,709.5556640625,731.59375,732.6558227539062,650.7874145507812
1767330545.1904082,664.328857421875,670.435791015625,721.1499633789062,551.92578125
1767330545.1943145,731.59375,715.2200317382812,726.19482421875,777.3515014648438
1767330545.1982207,789.3883666992188,787.4412231445312,736.9041137695312,909.2260131835938
1767330545.202127,738.231689453125,751.8616943359375,728.5845336914062,725.8408203125
1767330545.2060332,667.4265747070312,666.9840698242188,712.8303833007812,554.6694946289062
1767330545.2099395,709.0245971679688,694.7750854492188,724.6902465820312,700.7050170898438
1767330545.2138457,788.23779296875,787.7952880859375,740.09033203125,900.8179321289062
1767330545.18241,754.4283447265625,778.5021362304688,738.5857543945312,790.5390014648438
1767330545.1863163,667.869140625,683.80029296875,718.40625,567.4143676757812
1767330545.1902225,682.47265625,679.1094360351562,714.7775268554688,623.3504028320312
1767330545.1941288,770.447998046875,765.668701171875,741.4179077148438,864.9728393554688
1767330545.198035,785.0515747070312,795.2297973632812,747.9674072265625,853.4669799804688
1767330545.2019413,706.7234497070312,705.3073120117188,724.8672485351562,614.8538208007812
1767330545.2058475,672.6484985351562,652.5575561523438,709.3786010742188,587.859375
1767330545.2097538,751.9501953125,740.8869018554688,730.9741821289062,810.1873779296875
1767330545.21366,801.1597290039062,800.3631591796875,748.409912109375,899.0477905273438
1767330545.2175663,727.3453979492188,722.0350341796875,730.8856811523438,695.1290893554688
1767330545.2214725,665.656494140625,660.5231323242188,713.98095703125,556.4395751953125
1767330545.2253788,724.1591796875,724.1591796875,731.5052490234375,734.33740234375
1767330545.2655313,796.0263671875,796.6459350585938,749.6490478515625,909.6685791015625
1767330545.2694376,751.5076904296875,743.7191162109375,732.5673217773438,769.56298828125
1767330545.2733438,671.3208618164062,662.0277099609375,714.0694580078125,561.2189331054688
1767330545.27725,692.119873046875,694.7750854492188,719.8223876953125,659.6380615234375
1767330545.2811563,779.3871459960938,797.2654418945312,745.1351928710938,876.4786376953125
1767330545.2850626,772.306640625,781.5113525390625,748.9409790039062,817.6219482421875
1767330545.2889688,675.65771484375,671.6749267578125,717.4326782226562,598.7456665039062
1767330545.292875,668.400146484375,669.0197143554688,715.2200317382812,603.2594604492188
1767330545.2967813,757.880126953125,758.05712890625,739.1167602539062,835.7657470703125
1767330545.3006876,782.48486328125,774.0767822265625,741.5064697265625,884.0902099609375
1767330545.280216,705.9268798828125,701.6785888671875,721.4154663085938,656.5403442382812
1767330545.2841222,662.6472778320312,672.9140014648438,718.05224609375,560.42236328125
1767330545.2880285,738.7627563476562,745.1351928710938,736.196044921875,770.6250610351562
1767330545.2919347,799.920654296875,788.5033569335938,746.1087646484375,913.2973022460938
1767330545.295841,735.6650390625,731.770751953125,731.94775390625,727.1683959960938
1767330545.2997472,666.4530029296875,673.1795043945312,717.1671752929688,554.8464965820312
1767330545.3036535,717.6097412109375,728.7615356445312,734.5144653320312,698.4923095703125
1767330545.3075597,800.8057250976562,793.9022216796875,750.1800537109375,899.578857421875
1767330545.311466,766.022705078125,749.737548828125,730.7086791992188,812.488525390625
1767330545.3153722,678.3128662109375,679.552001953125,712.2108154296875,580.6018676757812
1767330545.3192785,692.7394409179688,695.4830932617188,717.521240234375,635.1217651367188
1767330545.3231847,780.272216796875,761.5089111328125,732.6558227539062,881.3464965820312
1767330545.327091,787.8837890625,767.88134765625,733.4523315429688,870.460205078125
1767330545.3309972,701.2360229492188,704.2452392578125,718.4947509765625,625.9171142578125
1767330545.3057404,672.3829345703125,689.9957275390625,720.7074584960938,586.5317993164062
1767330545.3096466,753.1007690429688,756.198486328125,741.594970703125,822.9323120117188
1767330545.3135529,789.5654296875,786.2906494140625,743.3650512695312,902.4110107421875
1767330545.317459,715.1315307617188,715.2200317382812,725.663818359375,683.2692260742188
1767330545.3213654,666.2760009765625,678.1358642578125,722.5661010742188,547.3234252929688
1767330545.3252716,729.735107421875,731.8592529296875,735.7535400390625,731.3281860351562
1767330545.3291779,792.9286499023438,777.0859985351562,738.3201904296875,917.545654296875
1767330545.333084,743.630615234375,741.3294067382812,728.23046875,758.6766967773438
1767330545.446721,667.3380737304688,684.5083618164062,714.5120239257812,551.4832153320312
1767330545.4506273,694.33251953125,699.554443359375,721.592529296875,665.9219970703125
1767330545.4125073,774.6078491210938,774.8733520507812,738.8512573242188,886.6569213867188
1767330545.4164135,764.341064453125,779.0331420898438,735.1339721679688,819.4805297851562
1767330545.4203198,677.516357421875,698.4923095703125,715.7510986328125,578.38916015625
1767330545.424226,671.58642578125,672.8255004882812,716.6361694335938,596.001953125
1767330545.4281323,757.1720581054688,741.3294067382812,733.5408935546875,832.2254638671875
1767330545.4320385,779.3871459960938,773.5457763671875,733.3638305664062,867.4509887695312
1767330545.4359448,702.8291625976562,724.6902465820312,725.3982543945312,631.758544921875
1767330545.439851,670.6128540039062,678.4898681640625,726.9028930664062,547.5889892578125
1767330545.4437573,739.2052612304688,720.7959594726562,727.6109619140625,781.0687866210938
1767330545.4476635,788.5033569335938,791.3355102539062,735.2224731445312,905.685791015625
1767330545.4515698,735.842041015625,750.091552734375,728.7615356445312,712.9188842773438
1767330545.455476,671.9404296875,665.83349609375,711.4142456054688,550.3326416015625
1767330545.4071767,719.73388671875,701.5015869140625,722.300537109375,705.9268798828125
1767330545.411083,796.6459350585938,789.6539306640625,743.8961181640625,902.6765747070312
1767330545.4149892,763.4559936523438,771.6871337890625,735.6650390625,786.2906494140625
1767330545.4188955,676.6312866210938,676.9852905273438,712.29931640625,567.9454345703125
1767330545.4228017,686.18994140625,678.9324340820312,715.4855346679688,634.5907592773438
1767330545.426708,773.63427734375,766.4652099609375,738.6742553710938,872.5844116210938
1767330545.4306142,777.9710693359375,793.0171508789062,746.197265625,844.2623291015625
1767330545.4345205,696.9877319335938,702.8291625976562,731.0626831054688,597.0640258789062
1767330545.4384267,673.3565063476562,656.8943481445312,714.9545288085938,586.7973022460938
1767330545.442333,749.0294799804688,744.7811889648438,726.7258911132812,814.4356689453125
1767330545.4462392,789.2113647460938,798.06201171875,740.9754028320312,888.7810668945312
1767330545.4501455,716.37060546875,722.3890380859375,727.6109619140625,684.0657958984375
1767330545.4540517,658.7529907226562,667.869140625,718.40625,558.03271484375
1767330545.457958,720.264892578125,727.6109619140625,730.9741821289062,740.267333984375
1767330545.4688818,787.4412231445312,798.8585815429688,748.7639770507812,903.2960815429688
1767330545.472788,741.2409057617188,751.9501953125,740.1788330078125,756.9950561523438
1767330545.4766943,662.9127807617188,668.7542114257812,716.5476684570312,555.1119995117188
1767330545.4806006,685.9244384765625,695.837158203125,719.2913208007812,660.9656372070312
1767330545.537157,773.1917114257812,793.1056518554688,744.0731201171875,875.4165649414062
1767330545.5410633,765.2261352539062,774.165283203125,748.055908203125,805.5850830078125
1767330545.5449696,674.5956420898438,669.0197143554688,714.4234619140625,589.718017578125
1767330545.5488758,669.0197143554688,667.7806396484375,713.0073852539062,605.5606689453125
1767330545.552782,758.234130859375,765.7572021484375,746.020263671875,836.38525390625
1767330545.5566883,782.8389282226562,786.5562133789062,746.9938354492188,872.7614135742188
1767330545.5605946,699.8199462890625,705.2188110351562,722.0350341796875,642.2022705078125
1767330545.5645008,660.08056640625,674.330078125,716.8131713867188,560.7764282226562
1767330545.568407,740.7984008789062,751.0651245117188,738.40869140625,777.1744995117188
1767330545.5723133,799.0355834960938,792.0435791015625,750.9766235351562,911.9697265625
1767330545.5762196,738.5857543945312,724.6017456054688,734.5144653320312,718.8488159179688
1767330545.5801258,669.4622192382812,664.5944213867188,713.5384521484375,550.1556396484375
1767330545.584032,718.4947509765625,723.4511108398438,729.735107421875,702.9176635742188
1767330545.5879383,798.8585815429688,788.9458618164062,756.2869873046875,897.72021484375
1767330545.5395586,760.8893432617188,743.0995483398438,739.913330078125,801.6907958984375
1767330545.543465,678.6669311523438,679.552001953125,714.6890258789062,576.0880126953125
1767330545.5473711,696.9877319335938,702.3865966796875,724.2476806640625,638.5735473632812
1767330545.5512774,776.4664306640625,764.6066284179688,744.5156860351562,878.8683471679688
1767330545.5551836,776.6434936523438,765.0491333007812,740.5328979492188,852.8474731445312
1767330545.55909,693.1819458007812,693.3589477539062,716.0166015625,609.1893920898438
1767330545.5629961,673.0910034179688,685.7474365234375,711.4142456054688,584.2305908203125
1767330545.5669024,746.5513305664062,750.7996215820312,733.62939453125,822.0472412109375
1767330545.5708086,779.564208984375,775.9354248046875,743.8961181640625,894.5339965820312
1767330545.574715,709.732666015625,716.193603515625,727.5224609375,676.8967895507812
1767330545.5786211,659.9920654296875,682.0301513671875,724.8672485351562,550.8637084960938
1767330545.5825274,726.19482421875,730.26611328125,747.6134033203125,734.9569702148438
1767330545.5864336,783.7239990234375,769.9169921875,748.3214111328125,909.2260131835938
1767330545.59034,729.2925415039062,732.6558227539062,728.3189697265625,746.5513305664062
1767330545.5810215,656.186279296875,673.799072265625,710.7062377929688,545.641845703125
1767330545.5849278,690.7037963867188,697.0762329101562,717.0786743164062,672.3829345703125
1767330545.588834,776.02392578125,775.4928588867188,737.2581176757812,886.5684204101562
1767330545.5927403,763.7215576171875,773.8997802734375,739.0282592773438,807.0896606445312
1767330545.6644373,685.1278686523438,700.9705200195312,726.4603271484375,575.7340087890625
1767330545.6683435,689.1991577148438,683.5347900390625,725.3097534179688,610.074462890625
1767330545.6722498,773.0147094726562,756.021484375,738.3201904296875,845.678466796875
1767330545.676156,791.6895751953125,784.7860717773438,741.77197265625,864.7073364257812
1767330545.648058,717.9637451171875,722.5661010742188,728.8500366210938,626.9791870117188
1767330545.6519642,682.7382202148438,673.7105712890625,722.0350341796875,549.1820678710938
1767330545.6558704,748.409912109375,726.6373901367188,729.4695434570312,791.778076171875
1767330545.6597767,795.67236328125,794.3447265625,740.8869018554688,911.8812255859375
1767330545.663683,734.0718994140625,750.8881225585938,729.0270385742188,706.4578857421875
1767330545.6675892,667.4265747070312,673.0910034179688,709.8211669921875,557.4131469726562
1767330545.6714954,717.521240234375,708.7590942382812,725.3982543945312,727.9649658203125
1767330545.6754017,792.0435791015625,789.2998657226562,747.87890625,915.5985107421875
1767330545.679308,758.6766967773438,768.7664184570312,739.3822631835938,789.4768676757812
1767330545.6832142,680.7025756835938,679.1094360351562,717.2556762695312,580.1593017578125
1767330545.6871204,695.3060913085938,682.0301513671875,715.5740966796875,653.7081298828125
1767330545.6910267,782.8389282226562,768.5894165039062,739.3822631835938,883.7362060546875
1767330545.6423006,787.706787109375,794.0792236328125,747.701904296875,850.103759765625
1767330545.6462069,702.8291625976562,701.5015869140625,725.7523193359375,603.1709594726562
1767330545.650113,680.1715087890625,656.4517822265625,710.440673828125,603.613525390625
1767330545.6540194,760.1812744140625,759.0307006835938,735.0454711914062,843.0232543945312
1767330545.6579256,795.7608642578125,808.6828002929688,746.7283325195312,898.8707885742188
1767330545.6618319,715.7510986328125,717.6982421875,723.1856079101562,677.693359375
1767330545.665738,663.7093505859375,663.0012817382812,712.2108154296875,562.8120727539062
1767330545.6696444,725.0442504882812,725.9293212890625,727.2568969726562,750.0030517578125
1767330545.6735506,788.5918579101562,799.4780883789062,748.055908203125,900.4638671875
1767330545.6774569,743.8961181640625,743.5421142578125,743.630615234375,742.3914794921875
1767330545.681363,668.7542114257812,660.5231323242188,720.087890625,551.1292114257812
1767330545.6852694,699.3773803710938,703.8912353515625,721.946533203125,675.65771484375
1767330545.6891756,782.9274291992188,797.7080078125,747.1708374023438,884.5327758789062
1767330545.6930819,765.5802001953125,770.1824951171875,746.8168334960938,793.3711547851562
1767330545.7469912,673.97607421875,662.0277099609375,713.4498901367188,579.2742309570312
1767330545.7508974,675.9232177734375,672.6484985351562,713.5384521484375,614.4112548828125
1767330545.7838242,772.5722045898438,782.5734252929688,741.2409057617188,843.1117553710938
1767330545.7877305,789.1228637695312,789.6539306640625,736.4615478515625,869.6636962890625
1767330545.7916367,704.7763061523438,705.3958129882812,718.4947509765625,632.7321166992188
1767330545.795543,675.3921508789062,681.1450805664062,723.0086059570312,558.1212158203125
1767330545.7994492,754.6939086914062,752.3927001953125,735.2224731445312,799.920654296875
1767330545.8033555,803.5494384765625,794.2562255859375,746.7283325195312,920.7318725585938
1767330545.8072617,735.2224731445312,726.8143920898438,729.55810546875,716.2821044921875
1767330545.811168,671.8519287109375,665.83349609375,711.6798095703125,561.8385009765625
1767330545.7753985,724.8672485351562,725.2212524414062,726.8143920898438,720.3533935546875
1767330545.7793047,801.2482299804688,791.955078125,748.3214111328125,900.10986328125
1767330545.783211,757.6146240234375,739.8248291015625,728.4959716796875,791.60107421875
1767330545.7871172,677.0737915039062,674.4185791015625,708.051025390625,579.4512329101562
1767330545.7910235,703.7142333984375,709.90966796875,722.6546020507812,654.7702026367188
1767330545.7949297,787.52978515625,777.6170654296875,742.7455444335938,889.754638671875
1767330545.798836,783.1044311523438,770.3594970703125,745.0466918945312,852.2279052734375
1767330545.8027422,696.191162109375,692.9164428710938,727.699462890625,610.9595336914062
1767330545.8066485,678.3128662109375,681.0565795898438,717.4326782226562,593.1697387695312
1767330545.8105547,757.526123046875,752.5697631835938,730.5316772460938,829.3932495117188
1767330545.814461,786.2906494140625,779.2101440429688,736.5501098632812,884.1787109375
1767330545.8183672,713.4498901367188,716.1051025390625,720.264892578125,662.1162109375
1767330545.8222735,670.7013549804688,684.7738647460938,719.2028198242188,556.5281372070312
1767330545.8261797,740.8869018554688,735.2224731445312,739.736328125,752.8352661132812
1767330545.821009,797.9735107421875,777.4400024414062,744.16162109375,923.2100219726562
1767330545.8249152,742.1259765625,740.3558349609375,735.4879760742188,752.5697631835938
1767330545.8288214,672.0289306640625,682.9152221679688,726.9028930664062,557.501708984375
1767330545.8327277,710.6177368164062,703.3601684570312,728.6730346679688,695.9256591796875
1767330545.836634,788.5033569335938,767.2617797851562,737.2581176757812,903.5616455078125
1767330545.8405402,766.6422729492188,760.1812744140625,731.0626831054688,805.7620849609375
1767330545.8444464,684.5968627929688,695.9256591796875,716.7246704101562,572.2822265625
1767330545.8483527,690.9692993164062,682.9152221679688,716.9016723632812,618.8366088867188
1767330545.852259,775.2273559570312,755.7559814453125,735.6650390625,860.5475463867188
1767330545.8561652,786.2906494140625,778.5906372070312,744.5156860351562,869.5751953125
1767330545.9334981,711.8568115234375,716.5476684570312,735.2224731445312,635.1217651367188
1767330545.9374044,686.8095092773438,683.0037231445312,731.1511840820312,572.1937255859375
1767330545.9413106,754.162841796875,732.0362548828125,733.62939453125,809.8333740234375
1767330545.945217,794.3447265625,781.4227905273438,741.6834716796875,914.4478759765625
1767330545.9491231,729.735107421875,733.0098266601562,727.699462890625,699.8199462890625
1767330545.9530294,669.9932861328125,663.0012817382812,716.1051025390625,558.4752197265625
1767330545.9569356,721.592529296875,704.2452392578125,731.770751953125,731.1511840820312
1767330545.960842,790.096435546875,781.77685546875,749.6490478515625,905.5087890625
1767330545.912358,750.9766235351562,762.0399169921875,744.8696899414062,764.6066284179688
1767330545.9162643,669.9932861328125,675.1266479492188,719.4683227539062,558.7407836914062
1767330545.9201705,691.1463012695312,682.7382202148438,721.6810302734375,652.2919921875
1767330545.9240768,775.0503540039062,772.9262084960938,738.1431884765625,879.2223510742188
1767330545.927983,772.129638671875,783.0159301757812,736.7271118164062,827.1806030273438
1767330545.9318893,691.4118041992188,690.7037963867188,731.4166870117188,582.1949462890625
1767330545.9357955,672.3829345703125,657.9564208984375,715.4855346679688,595.2053833007812
1767330545.9397018,746.7283325195312,743.3650512695312,733.1868286132812,833.6416015625
1767330545.943608,778.7676391601562,788.414794921875,757.6146240234375,881.612060546875
1767330545.9475143,702.8291625976562,704.2452392578125,735.0454711914062,660.3460693359375
1767330545.9514205,655.0357055664062,647.689697265625,710.5292358398438,555.4660034179688
1767330545.9553268,723.8936767578125,727.2568969726562,726.1063232421875,760.1812744140625
1767330545.959233,786.5562133789062,804.6115112304688,749.0294799804688,904.0926513671875
1767330545.9631393,733.8948974609375,746.374267578125,737.3466186523438,732.7443237304688
1767330545.9301891,662.9127807617188,665.4794311523438,716.193603515625,554.7579956054688
1767330545.9340954,703.625732421875,697.7843017578125,726.9913940429688,690.9692993164062
1767330545.9380016,785.9366455078125,790.450439453125,750.5341186523438,893.9144287109375
1767330545.941908,766.6422729492188,768.412353515625,744.16162109375,790.8930053710938
1767330545.9458141,679.0209350585938,663.620849609375,710.6177368164062,583.3455200195312
1767330545.9497204,686.7210083007812,674.6841430664062,714.8660278320312,637.2459106445312
1767330545.9536266,777.7940673828125,779.3871459960938,745.666259765625,867.716552734375
1767330545.957533,788.060791015625,786.2021484375,744.9581909179688,873.646484375
1767330545.9614391,705.5728759765625,697.872802734375,720.9729614257812,634.5907592773438
1767330545.9653454,673.0910034179688,674.6841430664062,714.6005249023438,577.504150390625
1767330546.0226998,747.6134033203125,753.1007690429688,733.4523315429688,800.7172241210938
1767330546.026606,793.2826538085938,789.2113647460938,742.47998046875,904.8007202148438
1767330546.0305123,724.2476806640625,724.336181640625,728.7615356445312,698.3153076171875
1767330546.0344186,660.257568359375,669.55078125,712.6533813476562,551.6602783203125
1767330546.0383248,716.8131713867188,734.8684692382812,728.8500366210938,722.2120361328125
1767330546.042231,794.167724609375,803.9034423828125,754.5169067382812,891.96728515625
1767330546.0461373,748.3214111328125,742.7455444335938,733.5408935546875,768.9434204101562
1767330546.0500436,662.1162109375,663.8863525390625,712.122314453125,563.608642578125
1767330546.0539498,689.1106567382812,697.0762329101562,723.1856079101562,648.9287719726562
1767330546.057856,774.0767822265625,771.5101318359375,742.2144775390625,881.2579956054688
1767330546.0617623,764.341064453125,763.7215576171875,738.6742553710938,832.136962890625
1767330546.0656686,677.870361328125,694.0670166015625,721.2384643554688,592.107666015625
1767330546.0172749,669.6392822265625,690.26123046875,725.2212524414062,594.2318115234375
1767330546.021181,754.9594116210938,759.2077026367188,740.9754028320312,838.6864624023438
1767330546.0250874,779.8297119140625,780.09521484375,743.8961181640625,886.3028564453125
1767330546.0289936,697.872802734375,705.9268798828125,722.12353515625,649.0172729492188
1767330546.0328999,658.4874267578125,672.471435546875,715.1315307617188,549.4475708007812
1767330546.036806,733.806396484375,738.9397583007812,743.8076171875,755.5789794921875
1767330546.0407124,788.6803588867188,777.3515014648438,744.5156860351562,911.3501586914062
1767330546.0446186,734.33740234375,730.089111328125,725.5753173828125,737.3466186523438
1767330546.0485249,668.8427124023438,683.80029296875,719.910888671875,548.6510620117188
1767330546.052431,710.3521728515625,714.3349609375,729.6466064453125,694.4210205078125
1767330546.0563374,789.91943359375,784.2550048828125,742.2144775390625,902.1455078125
1767330546.0602436,760.6238403320312,767.4387817382812,732.3902587890625,797.7965087890625
1767330546.0641499,678.6669311523438,691.765869140625,717.6982421875,570.423583984375
1767330546.068056,691.0578002929688,691.2348022460938,715.9281005859375,634.3251953125
1767330546.0511417,774.2537841796875,759.915771484375,734.2489013671875,874.3544921875
1767330546.055048,784.5205688476562,775.669921875,739.6478271484375,866.2119140625
1767330546.0589542,705.7498779296875,719.3798217773438,726.9913940429688,624.0584716796875
1767330546.0628605,683.0922241210938,685.1278686523438,734.2489013671875,570.069580078125
1767330546.0667667,754.0743408203125,731.3281860351562,735.5765380859375,812.488525390625
1767330546.070673,789.5654296875,787.4412231445312,736.2845458984375,907.2788696289062
1767330546.1814408,716.4591064453125,735.5765380859375,727.7879638671875,680.5255737304688
1767330546.185347,657.6024169921875,658.8414916992188,714.3349609375,550.5982055664062
1767330546.1892533,718.4947509765625,704.333740234375,728.1419677734375,739.2052612304688
1767330546.1931596,786.379150390625,789.1228637695312,745.84326171875,908.1639404296875
1767330546.1970658,741.6834716796875,768.2353515625,739.2052612304688,757.526123046875
1767330546.200972,666.7185668945312,677.3392944335938,721.1499633789062,557.2361450195312
1767330546.168031,698.0498046875,689.1991577148438,725.7523193359375,665.2139282226562
1767330546.1719372,776.8204956054688,780.1837158203125,741.4179077148438,886.3028564453125
1767330546.1758435,763.633056640625,782.5734252929688,736.8156127929688,819.8345947265625
1767330546.1797497,685.3048706054688,694.6865844726562,727.7879638671875,578.5662231445312
1767330546.183656,674.6841430664062,664.4173583984375,717.9637451171875,606.2686767578125
1767330546.1875622,754.7824096679688,745.84326171875,731.1511840820312,845.85546875
1767330546.1914685,783.1929321289062,790.096435546875,742.3914794921875,873.0269165039062
1767330546.1953747,704.8648071289062,708.9360961914062,723.0086059570312,647.7781982421875
1767330546.199281,668.3116455078125,658.9299926757812,713.4498901367188,565.0247192382812
1767330546.2031872,740.9754028320312,737.70068359375,730.089111328125,775.2273559570312
1767330546.1754603,797.885009765625,806.6471557617188,747.0823364257812,900.286865234375
1767330546.1793666,742.6570434570312,738.6742553710938,735.7535400390625,721.946533203125
1767330546.1832728,673.799072265625,657.69091796875,717.4326782226562,556.4395751953125
1767330546.187179,714.7775268554688,702.8291625976562,721.8580322265625,702.6521606445312
1767330546.1910853,795.4953002929688,794.4332275390625,742.0374755859375,901.614501953125
1767330546.1949916,772.7492065429688,772.6607055664062,744.6926879882812,783.8125
1767330546.1988978,684.154296875,676.4542236328125,713.98095703125,575.2914428710938
1767330546.202804,692.8279418945312,686.1014404296875,711.0602416992188,647.3356323242188
1767330546.2067103,781.1572875976562,780.272216796875,738.9397583007812,870.6372680664062
1767330546.2106166,787.6182861328125,784.4320068359375,743.0995483398438,862.8486938476562
1767330546.2145228,704.0682373046875,698.7578735351562,725.9293212890625,629.6343994140625
1767330546.218429,679.4634399414062,681.4990844726562,726.2833251953125,589.8065185546875
1767330546.2083678,755.4019165039062,758.05712890625,742.7455444335938,817.533447265625
1767330546.212274,794.3447265625,781.8653564453125,743.8961181640625,901.968505859375
1767330546.2161803,721.946533203125,709.732666015625,723.1856079101562,686.366943359375
1767330546.2200866,664.6829223632812,659.7265625,709.6441650390625,555.0234985351562
1767330546.3167934,725.8408203125,732.478759765625,727.2568969726562,737.9661865234375
1767330546.3206997,800.45166015625,804.7000122070312,751.3306274414062,895.861572265625
1767330546.2954557,751.3306274414062,743.5421142578125,730.26611328125,759.4732055664062
1767330546.299362,669.2852172851562,670.2587890625,704.9533081054688,566.9718627929688
1767330546.3032682,704.6878051757812,712.0338134765625,719.8223876953125,666.9840698242188
1767330546.3071744,791.778076171875,786.2906494140625,738.7627563476562,894.0029296875
1767330546.3110807,778.3250732421875,765.1376342773438,734.6029663085938,830.0128173828125
1767330546.314987,686.012939453125,678.5784301757812,716.8131713867188,588.5674438476562
1767330546.3188932,674.0645751953125,677.3392944335938,718.4947509765625,595.9134521484375
1767330546.3227994,760.8008422851562,755.1364135742188,737.3466186523438,834.9691772460938
1767330546.308534,784.6090698242188,776.8204956054688,747.701904296875,873.5579833984375
1767330546.3124402,700.439453125,707.2544555664062,727.1683959960938,637.4229125976562
1767330546.3163464,661.4966430664062,675.2151489257812,708.9360961914062,556.2625732421875
1767330546.3202527,738.8512573242188,744.8696899414062,740.0018310546875,767.52734375
1767330546.324159,791.1585083007812,781.2457885742188,751.8616943359375,908.1639404296875
1767330546.3280652,725.9293212890625,720.9729614257812,724.4246826171875,723.4511108398438
1767330546.3319714,663.1782836914062,668.1346435546875,709.90966796875,545.0222778320312
1767330546.3358777,716.8131713867188,710.8832397460938,725.0442504882812,710.9717407226562
1767330546.2871506,791.8665771484375,777.6170654296875,743.5421142578125,911.792724609375
1767330546.2910569,753.3662719726562,749.6490478515625,735.3994750976562,787.2642211914062
1767330546.2949631,673.2680053710938,684.154296875,715.66259765625,564.6707153320312
1767330546.2988694,693.1819458007812,695.7486572265625,719.9993896484375,640.7861938476562
1767330546.3027756,776.02392578125,765.7572021484375,746.197265625,875.7706298828125
1767330546.3066819,776.02392578125,772.483642578125,750.5341186523438,849.9267578125
1767330546.3105881,687.0750122070312,702.298095703125,722.12353515625,606.6227416992188
1767330546.3144944,669.90478515625,678.1358642578125,720.5304565429688,570.069580078125
1767330546.3184006,748.4984130859375,734.4259033203125,735.0454711914062,820.10009765625
1767330546.3223069,779.8297119140625,777.9710693359375,739.0282592773438,905.0662231445312
1767330546.3262131,708.3165283203125,721.3269653320312,729.4695434570312,674.5071411132812
1767330546.3301194,662.6472778320312,660.257568359375,718.3177490234375,561.3959350585938
1767330546.3340256,729.1155395507812,718.1407470703125,729.2040405273438,758.9421997070312
1767330546.3379319,795.1412963867188,793.99072265625,744.2501220703125,915.510009765625
1767330546.4663644,746.4627685546875,760.7123413085938,739.913330078125,753.808837890625
1767330546.4702706,670.3472900390625,678.7554321289062,720.6189575195312,561.927001953125
1767330546.474177,698.6693725585938,694.33251953125,722.8316040039062,679.906005859375
1767330546.4780831,777.528564453125,772.306640625,741.948974609375,889.8431396484375
1767330546.4819894,760.0927734375,773.7227783203125,740.5328979492188,811.0724487304688
1767330546.4858956,676.7197875976562,696.4566650390625,731.59375,568.5650024414062
1767330546.4578767,676.5427856445312,670.5243530273438,723.4511108398438,609.0123901367188
1767330546.461783,759.8272705078125,747.9674072265625,733.806396484375,855.0601196289062
1767330546.4656892,780.5377807617188,792.6631469726562,743.984619140625,866.388916015625
1767330546.4695954,701.8555908203125,713.5384521484375,725.9293212890625,636.183837890625
1767330546.4735017,668.046142578125,660.4345703125,714.6890258789062,568.8305053710938
1767330546.477408,742.9225463867188,738.7627563476562,732.478759765625,782.9274291992188
1767330546.4813142,796.5574340820312,803.1068725585938,750.2685546875,894.35693359375
1767330546.4852204,735.7535400390625,736.196044921875,731.2396850585938,706.1038818359375
1767330546.4891267,670.3472900390625,663.2667846679688,712.3878173828125,554.8464965820312
1767330546.493033,722.2120361328125,712.2108154296875,726.1063232421875,717.6982421875
1767330546.4969392,799.8321533203125,799.566650390625,744.5156860351562,907.54443359375
1767330546.5008454,768.5009155273438,772.129638671875,747.9674072265625,773.2802124023438
1767330546.4522593,684.4197998046875,668.6657104492188,722.0350341796875,571.4856567382812
1767330546.4561656,698.3153076171875,682.2071533203125,712.29931640625,657.513916015625
1767330546.4600718,784.5205688476562,786.2906494140625,738.0546875,879.2223510742188
1767330546.463978,786.4676513671875,788.9458618164062,744.7811889648438,855.1486206054688
1767330546.4678843,696.7222290039062,695.1290893554688,724.7787475585938,616.3583984375
1767330546.4717906,675.5692138671875,679.906005859375,713.803955078125,592.28466796875
1767330546.4756968,758.9421997070312,768.1468505859375,733.8948974609375,819.569091796875
1767330546.479603,796.1148681640625,792.30908203125,743.3650512695312,890.7282104492188
1767330546.4835093,719.0258178710938,709.6441650390625,723.0086059570312,675.5692138671875
1767330546.4874156,668.3116455078125,666.4530029296875,712.3878173828125,556.6166381835938
1767330546.4913218,734.4259033203125,739.6478271484375,726.6373901367188,747.4363403320312
1767330546.495228,802.310302734375,803.1953735351562,752.7467651367188,894.7109985351562
1767330546.4991343,746.374267578125,736.6386108398438,739.2052612304688,744.338623046875
1767330546.5030406,664.7714233398438,667.0725708007812,711.9453125,560.5109252929688
1767330546.5255144,699.4658813476562,721.0614624023438,722.4775390625,674.5071411132812
1767330546.5294206,780.8917846679688,792.2205810546875,744.0731201171875,892.8523559570312
1767330546.5333269,759.915771484375,761.7744140625,735.3109741210938,811.603515625
1767330546.537233,671.58642578125,682.8267211914062,712.476318359375,577.5926513671875
1767330546.5411394,674.5956420898438,688.3140869140625,721.5040283203125,605.0296020507812
1767330546.5450456,758.7651977539062,761.2433471679688,741.6834716796875,843.996826171875
1767330546.5489519,773.63427734375,769.56298828125,736.196044921875,862.5831909179688
1767330546.552858,696.9877319335938,698.1383056640625,713.3613891601562,623.615966796875
1767330546.5567644,670.5243530273438,683.977294921875,716.193603515625,560.8649291992188
1767330546.5606706,756.1099853515625,759.0307006835938,746.4627685546875,776.9089965820312
1767330546.5126615,803.81494140625,783.4584350585938,743.5421142578125,902.5880737304688
1767330546.5165677,734.5144653320312,718.7603149414062,719.1143188476562,716.37060546875
1767330546.520474,681.6761474609375,676.9852905273438,708.4935302734375,557.4131469726562
1767330546.5243802,736.2845458984375,716.37060546875,722.4775390625,731.8592529296875
1767330546.5282865,803.7264404296875,771.5986328125,737.6121826171875,921.616943359375
1767330546.5321927,763.3674926757812,748.6754760742188,725.3097534179688,788.5918579101562
1767330546.536099,677.4277954101562,687.6060791015625,712.0338134765625,571.0431518554688
1767330546.5400052,696.3681640625,699.7314453125,721.76953125,658.3104248046875
1767330546.5439115,783.635498046875,774.34228515625,745.1351928710938,897.8087158203125
1767330546.5478177,778.5021362304688,779.8297119140625,743.8961181640625,859.3969116210938
1767330546.551724,691.94287109375,705.2188110351562,718.9373168945312,612.9951782226562
1767330546.5556302,682.8267211914062,689.55322265625,723.8936767578125,591.4880981445312
1767330546.5595365,758.4996337890625,741.594970703125,736.5501098632812,837.4473266601562
1767330546.5634427,784.8745727539062,771.5101318359375,740.09033203125,906.9248657226562
1767330546.5633342,712.5648803710938,717.1671752929688,725.1327514648438,668.400146484375
1767330546.5672405,665.2139282226562,663.620849609375,713.3613891601562,563.608642578125
1767330546.5711467,725.0442504882812,723.5396728515625,728.1419677734375,767.52734375
1767330546.575053,778.8561401367188,794.7872924804688,741.0639038085938,903.9156494140625
1767330546.5789592,725.1327514648438,753.1007690429688,733.2753295898438,727.699462890625
1767330546.5828655,654.5046997070312,676.8967895507812,721.4154663085938,550.3326416015625
1767330546.5867717,690.438232421875,700.6165161132812,727.9649658203125,686.366943359375
1767330546.590678,769.4744262695312,784.7860717773438,739.0282592773438,890.108642578125
1767330546.6533184,750.2685546875,778.3250732421875,734.6029663085938,795.849365234375
1767330546.6572247,672.7369995117188,689.6417236328125,727.699462890625,556.2625732421875
1767330546.661131,676.2772216796875,662.5587768554688,722.3890380859375,610.6055297851562
1767330546.6650372,761.597412109375,750.3570556640625,726.371826171875,857.3612670898438
1767330546.6689434,785.84814453125,798.8585815429688,739.2052612304688,854.7061157226562
1767330546.6728497,708.051025390625,713.803955078125,729.912109375,625.3860473632812
1767330546.676756,671.4978637695312,656.4517822265625,710.440673828125,569.53857421875
1767330546.6806622,747.0823364257812,731.6822509765625,721.5040283203125,790.2734375
1767330546.6858928,798.5930786132812,801.6907958984375,739.559326171875,897.0121459960938
1767330546.689799,737.4351196289062,740.5328979492188,728.23046875,707.1659545898438
1767330546.6937053,673.6220703125,665.656494140625,715.5740966796875,562.10400390625
1767330546.6976116,726.5488891601562,713.3613891601562,730.0006103515625,727.9649658203125
1767330546.7015178,799.920654296875,792.3975830078125,748.23291015625,909.93408203125
1767330546.705424,763.4559936523438,760.6238403320312,748.9409790039062,764.1640625
1767330546.7093303,682.3841552734375,659.2839965820312,720.44189453125,568.033935546875
1767330546.7132366,700.9705200195312,672.5599975585938,714.5120239257812,673.5335693359375
1767330546.6902034,786.4676513671875,781.77685546875,739.3822631835938,891.3477172851562
1767330546.6941097,777.882568359375,778.1480712890625,738.7627563476562,846.8290405273438
1767330546.698016,689.1106567382812,676.2772216796875,718.6718139648438,614.499755859375
1767330546.7019222,672.29443359375,670.2587890625,720.087890625,611.1365356445312
1767330546.7058284,751.59619140625,764.6951293945312,742.5685424804688,835.2346801757812
1767330546.7097347,778.6791381835938,796.4688720703125,749.560546875,887.0109252929688
1767330546.713641,700.439453125,710.3521728515625,728.23046875,665.3024291992188
1767330546.7175472,652.9115600585938,653.0000610351562,711.1487426757812,555.4660034179688
1767330546.7214534,721.1499633789062,728.6730346679688,730.1776123046875,755.4019165039062
1767330546.7253597,786.7332153320312,805.0540161132812,760.0042724609375,888.6040649414062
1767330546.7085154,725.3982543945312,734.2489013671875,732.7443237304688,722.6546020507812
1767330546.7124217,649.8138427734375,653.5311279296875,701.1475219726562,555.64306640625
1767330546.716328,694.9520874023438,710.5292358398438,720.7959594726562,677.870361328125
1767330546.7202342,782.7504272460938,797.0884399414062,744.6926879882812,890.5512084960938
1767330546.7241404,764.9606323242188,765.9342041015625,734.7799682617188,805.1425170898438
1767330546.7280467,682.295654296875,678.4898681640625,715.3085327148438,573.60986328125
1767330546.7647839,686.366943359375,692.5624389648438,717.875244140625,607.5963134765625
1767330546.76869,774.5193481445312,776.2894287109375,737.70068359375,849.4841918945312
1767330546.7725964,791.955078125,783.4584350585938,750.0030517578125,854.9716186523438
1767330546.7765026,712.5648803710938,710.086669921875,732.2132568359375,607.684814453125
1767330546.7804089,681.8531494140625,682.0301513671875,710.086669921875,575.99951171875
1767330546.784315,768.3238525390625,762.8364868164062,743.0110473632812,805.0540161132812
1767330546.7882214,809.2138061523438,790.3619384765625,751.3306274414062,912.2352294921875
1767330546.7921276,726.8143920898438,714.4234619140625,718.7603149414062,712.5648803710938
1767330546.7960339,672.29443359375,669.727783203125,712.476318359375,557.7672119140625
1767330546.79994,735.5765380859375,717.6982421875,730.3546142578125,743.0110473632812
1767330546.8038464,803.7264404296875,779.918212890625,746.7283325195312,924.6261596679688
1767330546.8077526,755.7559814453125,748.7639770507812,738.7627563476562,776.6434936523438
1767330546.8116589,677.516357421875,688.9336547851562,718.6718139648438,564.8477172851562
1767330546.815565,704.2452392578125,704.6878051757812,724.2476806640625,666.8955688476562
1767330546.7749712,782.0423583984375,761.951416015625,745.84326171875,896.8351440429688
1767330546.7788775,769.0319213867188,761.0663452148438,742.0374755859375,837.889892578125
1767330546.7827837,682.3841552734375,703.0946655273438,723.7166748046875,596.9755249023438
1767330546.78669,676.5427856445312,698.5808715820312,732.3902587890625,588.8329467773438
1767330546.7905962,756.1099853515625,751.3306274414062,741.2409057617188,835.3231811523438
1767330546.7945025,773.7227783203125,775.4043579101562,737.3466186523438,894.0914306640625
1767330546.7984087,695.9256591796875,717.6982421875,727.699462890625,650.433349609375
1767330546.802315,659.4609985351562,672.5599975585938,719.910888671875,560.7764282226562
1767330546.8062212,728.23046875,726.7258911132812,730.7971801757812,771.95263671875
1767330546.8101275,781.5113525390625,785.1400756835938,744.16162109375,898.8707885742188
1767330546.8140337,725.0442504882812,742.0374755859375,735.5765380859375,713.3613891601562
1767330546.81794,661.6737060546875,667.9576416015625,719.556884765625,545.7303466796875
1767330546.8013623,710.7947387695312,700.7050170898438,728.23046875,697.9613037109375
1767330546.8052685,785.9366455078125,782.8389282226562,742.1259765625,895.7730712890625
1767330546.8091748,758.8536987304688,770.8905639648438,736.4615478515625,789.4768676757812
1767330546.813081,683.623291015625,698.40380859375,733.1868286132812,556.4395751953125
1767330546.8169873,691.6773681640625,687.4290161132812,728.5845336914062,624.4124755859375
1767330546.8208935,771.95263671875,762.482421875,733.7178955078125,877.0097045898438
1767330546.9164364,780.1837158203125,786.5562133789062,736.7271118164062,856.1221923828125
1767330546.9203427,697.9613037109375,705.83837890625,716.6361694335938,620.6067504882812
1767330546.924249,672.2059326171875,663.4437866210938,711.8568115234375,587.0628051757812
1767330546.9281552,753.0122680664062,741.4179077148438,730.8856811523438,814.7897338867188
1767330546.9320614,797.3539428710938,801.2482299804688,744.7811889648438,897.72021484375
1767330546.9359677,728.1419677734375,733.5408935546875,731.8592529296875,687.6060791015625
1767330546.8878202,667.869140625,660.9656372070312,717.6097412109375,564.1396484375
1767330546.8917265,720.1763916015625,715.2200317382812,729.8236083984375,742.1259765625
1767330546.8956327,785.671142578125,798.3275146484375,745.4891967773438,910.0225830078125
1767330546.899539,738.231689453125,765.668701171875,740.09033203125,762.3939208984375
1767330546.9034452,657.3368530273438,674.4185791015625,729.4695434570312,542.1900634765625
1767330546.9073515,681.1450805664062,687.1635131835938,725.3982543945312,665.2139282226562
1767330546.9112577,760.6238403320312,782.307861328125,744.9581909179688,885.0637817382812
1767330546.915164,741.77197265625,777.2630004882812,751.773193359375,807.1781616210938
1767330546.9190702,653.9736328125,681.0565795898438,728.3189697265625,575.2029418945312
1767330546.9229765,653.0885620117188,675.5692138671875,724.5132446289062,585.5582275390625
1767330546.9268827,734.5144653320312,767.0847778320312,749.2064819335938,812.0460205078125
1767330546.930789,761.597412109375,792.8401489257812,762.7479858398438,850.1922607421875
1767330546.9346952,684.0657958984375,705.9268798828125,743.630615234375,626.359619140625
1767330546.9386015,639.3700561523438,660.08056640625,724.2476806640625,535.817626953125
1767330546.8979285,711.3257446289062,741.3294067382812,739.559326171875,745.2236938476562
1767330546.9018347,770.0054931640625,813.9931640625,766.19970703125,861.3440551757812
1767330546.905741,710.9717407226562,744.6926879882812,753.1007690429688,675.3921508789062
1767330546.9096472,639.1045532226562,660.257568359375,724.5132446289062,530.24169921875
1767330546.9135535,683.4462280273438,717.2556762695312,736.6386108398438,673.0910034179688
1767330546.9174597,760.5353393554688,796.9999389648438,758.234130859375,866.9199829101562
1767330546.921366,734.2489013671875,758.9421997070312,749.560546875,763.1904907226562
1767330546.9252722,654.32763671875,679.1094360351562,729.4695434570312,541.3049926757812
1767330546.9291785,670.9668579101562,699.1118774414062,740.4443359375,605.4721069335938
1767330546.9330847,760.8008422851562,783.2814331054688,764.4295654296875,843.5543212890625
1767330546.936991,763.1019897460938,783.9010009765625,759.1192016601562,833.0220336914062
1767330546.9408972,680.260009765625,696.01416015625,737.3466186523438,597.860595703125
1767330547.0361986,655.6552734375,673.0910034179688,728.1419677734375,563.2545776367188
1767330547.0401049,737.4351196289062,760.44677734375,755.0479125976562,782.48486328125
1767330547.044011,774.5193481445312,780.272216796875,757.526123046875,873.9119873046875
1767330547.0479174,692.296875,705.1303100585938,731.8592529296875,673.6220703125
1767330547.0518236,640.7861938476562,676.1002197265625,727.6109619140625,538.5613403320312
1767330547.0557299,712.8303833007812,740.9754028320312,746.6398315429688,733.2753295898438
1767330547.0148497,782.7504272460938,784.9630737304688,764.341064453125,910.465087890625
1767330547.018756,729.912109375,731.2396850585938,743.4535522460938,752.3927001953125
1767330547.0226622,655.3012084960938,678.3128662109375,723.0086059570312,546.349853515625
1767330547.0265684,691.5888671875,710.9717407226562,733.2753295898438,664.6829223632812
1767330547.0304747,775.4928588867188,776.9089965820312,745.5777587890625,891.7017822265625
1767330547.034381,762.7479858398438,763.4559936523438,740.3558349609375,817.9759521484375
1767330547.0382872,678.4898681640625,691.94287109375,719.9993896484375,582.283447265625
1767330547.0421934,680.7910766601562,694.33251953125,726.6373901367188,590.426025390625
1767330547.0460997,772.2181396484375,757.526123046875,750.2685546875,839.2174682617188
1767330547.050006,790.0079345703125,775.9354248046875,748.4984130859375,887.0109252929688
1767330547.0539122,710.6177368164062,713.4498901367188,729.6466064453125,642.11376953125
1767330547.0578184,674.5071411132812,672.117431640625,722.2120361328125,565.8212890625
1767330547.0100048,742.8340454101562,722.300537109375,729.55810546875,785.3170776367188
1767330547.013911,795.4953002929688,776.4664306640625,740.4443359375,906.6593627929688
1767330547.0178173,732.0362548828125,735.3109741210938,730.0006103515625,708.6705932617188
1767330547.0217235,668.4886474609375,671.9404296875,713.3613891601562,547.3234252929688
1767330547.0256298,717.4326782226562,702.0325927734375,724.336181640625,713.4498901367188
1767330547.029536,789.742431640625,779.2101440429688,741.2409057617188,901.1719360351562
1767330547.0334423,753.808837890625,769.739990234375,738.1431884765625,783.2814331054688
1767330547.0373485,675.3036499023438,698.226806640625,736.373046875,558.6522827148438
1767330547.0412548,689.8187255859375,682.8267211914062,725.663818359375,633.3516235351562
1767330547.045161,766.5537719726562,752.0386962890625,721.1499633789062,876.39013671875
1767330547.0490673,767.9698486328125,773.1032104492188,730.089111328125,841.2531127929688
1767330547.0529735,687.694580078125,697.2532348632812,715.3970336914062,608.1273193359375
1767330547.0568798,670.6128540039062,664.6829223632812,706.9889526367188,590.6915893554688
1767330547.060786,754.162841796875,742.5685424804688,729.735107421875,824.7909545898438
1767330547.1484046,793.3711547851562,799.3895874023438,743.8961181640625,900.0213623046875
1767330547.1523108,719.9993896484375,728.3189697265625,726.9913940429688,686.4554443359375
1767330547.156217,665.3909301757812,653.8851318359375,711.59130859375,570.423583984375
1767330547.1601233,726.19482421875,716.9901733398438,728.3189697265625,760.9778442382812
1767330547.1640296,791.5125732421875,794.5217895507812,742.0374755859375,916.1295166015625
1767330547.1679358,740.1788330078125,747.3478393554688,720.9729614257812,771.0675659179688
1767330547.171842,662.2047119140625,658.5759887695312,699.554443359375,587.682373046875
1767330547.1757483,702.7406616210938,684.4197998046875,711.6798095703125,700.262451171875
1767330547.1404274,795.3182983398438,787.7952880859375,750.0030517578125,885.1522827148438
1767330547.1443336,779.4756469726562,777.70556640625,752.30419921875,804.4344482421875
1767330547.1482399,690.26123046875,675.9232177734375,720.7959594726562,602.0203857421875
1767330547.152146,690.7037963867188,677.3392944335938,713.0958862304688,620.1641845703125
1767330547.1560524,776.5549926757812,772.3951416015625,734.4259033203125,850.0152587890625
1767330547.1599586,793.9022216796875,791.4240112304688,747.0823364257812,874.9740600585938
1767330547.1638649,707.4314575195312,690.7037963867188,715.7510986328125,643.7069091796875
1767330547.167771,674.9496459960938,655.3897094726562,703.979736328125,572.105224609375
1767330547.1716774,753.5433349609375,742.1259765625,723.8936767578125,793.1056518554688
1767330547.1755836,811.3379516601562,807.0011596679688,745.2236938476562,896.4810791015625
1767330547.1794899,746.197265625,733.7178955078125,735.5765380859375,704.5993041992188
1767330547.183396,675.3036499023438,662.1162109375,703.0061645507812,565.644287109375
1767330547.1873024,726.1063232421875,722.3890380859375,715.839599609375,717.6097412109375
1767330547.1912086,796.6459350585938,793.99072265625,744.6041870117188,903.650146484375
1767330547.1701214,758.1456298828125,748.409912109375,731.59375,783.1044311523438
1767330547.1740277,674.330078125,667.7806396484375,701.944091796875,563.608642578125
1767330547.177934,690.438232421875,698.9348754882812,707.0774536132812,638.4849853515625
1767330547.1818402,774.5193481445312,781.2457885742188,733.3638305664062,868.070556640625
1767330547.1857464,770.9790649414062,761.8629150390625,735.0454711914062,840.6336059570312
1767330547.1896527,687.1635131835938,675.3921508789062,716.6361694335938,605.3836059570312
1767330547.193559,673.0025024414062,678.4898681640625,712.9188842773438,591.0455932617188
1767330547.1974652,763.7215576171875,777.70556640625,743.984619140625,815.851806640625
1767330547.2013714,799.8321533203125,786.9987182617188,746.2857666015625,889.4890747070312
1767330547.2052777,715.3085327148438,698.3153076171875,714.0694580078125,687.694580078125
