timestamp,tp9,af7,af8,tp10
1767330512.0427809,757.2605590820312,753.8973388671875,745.9317626953125,837.8013916015625
1767330512.0466871,786.9987182617188,777.2630004882812,747.4363403320312,903.4730834960938
1767330512.0110853,710.9717407226562,712.29931640625,730.7086791992188,667.9576416015625
1767330512.0149915,669.2852172851562,682.7382202148438,724.8672485351562,549.1820678710938
1767330512.0188978,732.5673217773438,738.6742553710938,741.5064697265625,745.4891967773438
1767330512.022804,787.4412231445312,782.307861328125,739.8248291015625,918.4306640625
1767330512.0267103,738.8512573242188,744.0731201171875,725.2212524414062,744.9581909179688
1767330512.0306165,666.8955688476562,682.11865234375,719.556884765625,539.9774169921875
1767330512.0345228,704.9533081054688,701.5015869140625,723.4511108398438,681.941650390625
1767330512.038429,784.6975708007812,772.5722045898438,740.6213989257812,905.86279296875
1767330512.0423353,765.668701171875,765.4031372070312,740.7098999023438,813.9046630859375
1767330512.0462415,687.9600830078125,697.518798828125,724.7787475585938,573.5213623046875
1767330512.0501478,692.9164428710938,690.5267944335938,724.336181640625,616.3583984375
1767330512.054054,775.0503540039062,766.1112060546875,741.5064697265625,865.2383422851562
1767330512.0579603,788.5033569335938,787.3527221679688,743.3650512695312,876.213134765625
1767330512.0618665,708.3165283203125,717.521240234375,723.982177734375,621.8458251953125
1767330512.0206642,677.870361328125,671.6749267578125,717.6982421875,547.9429931640625
1767330512.0245705,744.9581909179688,725.5753173828125,731.59375,797.7965087890625
1767330512.0284767,787.9722900390625,786.5562133789062,741.77197265625,914.4478759765625
1767330512.032383,728.407470703125,733.806396484375,724.2476806640625,696.9877319335938
1767330512.0362892,665.0369262695312,656.8058471679688,709.90966796875,545.81884765625
1767330512.0401955,718.1407470703125,706.1923828125,726.1063232421875,725.663818359375
1767330512.0441017,792.3975830078125,796.9114379882812,748.7639770507812,917.6341552734375
1767330512.048008,755.7559814453125,771.5101318359375,743.8076171875,780.0067138671875
1767330512.0519142,675.3036499023438,670.081787109375,723.80517578125,564.8477172851562
1767330512.0558205,694.2440185546875,675.5692138671875,723.3626098632812,656.9828491210938
1767330512.0597267,775.2273559570312,767.52734375,739.2052612304688,896.8351440429688
1767330512.063633,770.1824951171875,782.48486328125,739.559326171875,845.2359008789062
1767330512.0542915,687.9600830078125,697.3417358398438,727.2568969726562,586.354736328125
1767330512.0581977,667.7806396484375,662.47021484375,716.37060546875,598.7456665039062
1767330512.062104,752.481201171875,754.5169067382812,729.1155395507812,843.7313232421875
1767330512.0660102,789.0343627929688,807.4436645507812,744.5156860351562,891.7017822265625
1767330512.1491885,712.122314453125,718.40625,727.1683959960938,663.2667846679688
1767330512.1530948,662.1162109375,653.5311279296875,713.1843872070312,551.1292114257812
1767330512.157001,730.3546142578125,727.7879638671875,727.699462890625,755.0479125976562
1767330512.1609073,792.2205810546875,804.9655151367188,742.5685424804688,903.0305786132812
1767330512.1648135,734.33740234375,744.0731201171875,736.196044921875,728.053466796875
1767330512.1687198,665.1254272460938,660.4345703125,714.8660278320312,543.3406372070312
1767330512.1213026,707.6085205078125,703.625732421875,715.66259765625,679.1094360351562
1767330512.1252089,786.6447143554688,802.6643676757812,736.7271118164062,899.2247924804688
1767330512.129115,761.597412109375,772.2181396484375,723.982177734375,826.8265991210938
1767330512.1330214,677.6048583984375,676.8082885742188,705.83837890625,585.9122314453125
1767330512.1369276,695.66015625,693.801513671875,733.2753295898438,594.9398803710938
1767330512.1408339,783.9010009765625,775.4928588867188,754.5169067382812,853.821044921875
1767330512.14474,788.1492919921875,773.2802124023438,740.7098999023438,886.6569213867188
1767330512.1486464,706.015380859375,694.8635864257812,724.0706787109375,636.4493408203125
1767330512.1525526,675.5692138671875,675.1266479492188,719.556884765625,575.5570068359375
1767330512.1564589,752.8352661132812,761.8629150390625,738.4971923828125,810.27587890625
1767330512.160365,797.7965087890625,798.06201171875,750.9766235351562,921.7939453125
1767330512.1642714,724.2476806640625,722.6546020507812,731.94775390625,700.1739501953125
1767330512.1681776,664.8599243164062,668.4886474609375,709.3786010742188,544.4027099609375
1767330512.1720839,730.0006103515625,738.40869140625,733.8948974609375,728.407470703125
1767330512.1385715,803.3723754882812,803.1953735351562,765.7572021484375,910.0225830078125
1767330512.1424778,754.9594116210938,742.3914794921875,735.6650390625,775.5814208984375
1767330512.146384,674.2415771484375,667.3380737304688,709.2901000976562,558.03271484375
1767330512.1502903,701.76708984375,708.22802734375,723.7166748046875,646.8046264648438
1767330512.1541965,783.635498046875,783.1044311523438,745.5777587890625,888.8695678710938
1767330512.1581028,774.34228515625,770.7135620117188,739.2052612304688,838.5094604492188
1767330512.162009,687.9600830078125,698.8463745117188,715.839599609375,583.6995849609375
1767330512.1659153,675.9232177734375,688.3140869140625,716.0166015625,579.8052978515625
1767330512.1698215,765.5802001953125,758.8536987304688,741.6834716796875,839.74853515625
1767330512.1737278,799.0355834960938,779.8297119140625,751.773193359375,899.578857421875
1767330512.177634,715.3970336914062,702.6521606445312,727.2568969726562,656.5403442382812
1767330512.1815403,668.7542114257812,679.3749389648438,718.7603149414062,549.0050659179688
1767330512.274873,746.374267578125,754.6939086914062,744.7811889648438,760.8008422851562
1767330512.2787793,798.3275146484375,788.414794921875,742.8340454101562,923.2100219726562
1767330512.2826855,738.5857543945312,734.0718994140625,722.6546020507812,736.1075439453125
1767330512.2865918,673.4450073242188,682.295654296875,713.0073852539062,541.570556640625
1767330512.2823792,715.66259765625,708.4935302734375,723.80517578125,701.76708984375
1767330512.2862854,786.2021484375,773.7227783203125,743.0995483398438,913.0317993164062
1767330512.2901917,757.2605590820312,758.8536987304688,737.3466186523438,799.1240844726562
1767330512.294098,680.8795776367188,688.4910888671875,728.1419677734375,565.2017211914062
1767330512.2980042,693.3589477539062,686.8980102539062,729.6466064453125,626.8021850585938
1767330512.3019104,772.483642578125,764.0755615234375,738.40869140625,873.2039184570312
1767330512.2612562,774.34228515625,780.0067138671875,738.3201904296875,866.9199829101562
1767330512.2651625,693.2704467773438,716.193603515625,724.336181640625,614.4112548828125
1767330512.2690687,675.0381469726562,680.7025756835938,729.2925415039062,555.3775024414062
1767330512.272975,748.055908203125,729.1155395507812,737.6121826171875,812.2230224609375
1767330512.2768812,786.1136474609375,783.3699340820312,738.5857543945312,913.9168701171875
1767330512.2807875,722.2120361328125,734.0718994140625,725.3097534179688,684.154296875
1767330512.2846937,664.8599243164062,660.257568359375,712.7418823242188,548.8280639648438
1767330512.2886,723.80517578125,712.7418823242188,727.699462890625,740.7984008789062
1767330512.2925062,792.486083984375,797.1769409179688,752.481201171875,921.970947265625
1767330512.2964125,748.5869750976562,761.6859130859375,746.1087646484375,765.668701171875
1767330512.3003187,673.0910034179688,670.5243530273438,722.4775390625,556.7051391601562
1767330512.304225,698.6693725585938,687.1635131835938,721.4154663085938,663.974853515625
1767330512.296638,781.3342895507812,777.3515014648438,738.6742553710938,895.7730712890625
1767330512.3005443,772.7492065429688,783.635498046875,744.0731201171875,834.172607421875
1767330512.3044505,691.5003662109375,692.2083740234375,732.7443237304688,579.6282958984375
1767330512.3083568,681.7646484375,657.7794189453125,714.7775268554688,602.10888671875
1767330512.312263,759.6502685546875,753.6318359375,730.0006103515625,852.6704711914062
1767330512.3161693,782.7504272460938,805.0540161132812,748.9409790039062,883.82470703125
1767330512.3200755,705.3958129882812,717.2556762695312,730.7971801757812,649.1942749023438
1767330512.3239818,669.0197143554688,659.903564453125,717.875244140625,556.35107421875
1767330512.327888,742.2144775390625,736.373046875,735.9305419921875,773.63427734375
1767330512.3317943,793.5482177734375,806.4700927734375,745.7547607421875,909.580078125
1767330512.4092994,730.443115234375,731.94775390625,729.0270385742188,721.592529296875
1767330512.4132056,664.9484252929688,651.4069213867188,712.7418823242188,546.6154174804688
1767330512.4171119,711.59130859375,703.2716674804688,719.556884765625,698.5808715820312
1767330512.4210181,790.7160034179688,799.3895874023438,742.0374755859375,905.0662231445312
1767330512.4249244,769.6514892578125,776.6434936523438,751.5076904296875,786.5562133789062
1767330512.4288306,686.7210083007812,667.6036376953125,723.2741088867188,572.6362915039062
1767330512.4327369,698.7578735351562,680.6140747070312,719.3798217773438,642.9103393554688
1767330512.4366431,786.6447143554688,786.5562133789062,754.2513427734375,879.8419189453125
1767330512.387966,785.1400756835938,780.3607177734375,745.9317626953125,869.752197265625
1767330512.3918722,693.801513671875,683.80029296875,714.5120239257812,620.3411865234375
1767330512.3957784,671.3208618164062,671.1438598632812,717.9637451171875,581.0443725585938
1767330512.3996847,755.844482421875,769.9169921875,743.630615234375,818.1529541015625
1767330512.403591,797.6195068359375,805.5850830078125,753.2777709960938,914.359375
1767330512.4074972,723.1856079101562,713.7154541015625,732.3017578125,695.3945922851562
1767330512.4114034,668.7542114257812,656.9828491210938,717.4326782226562,553.3418579101562
1767330512.4153097,731.6822509765625,735.0454711914062,739.4707641601562,743.984619140625
1767330512.419216,800.9827270507812,803.4608764648438,763.987060546875,907.0133666992188
1767330512.4231222,745.84326171875,737.1696166992188,739.559326171875,758.4996337890625
1767330512.4270284,663.7978515625,659.2839965820312,715.3085327148438,556.35107421875
1767330512.4309347,694.7750854492188,703.5372314453125,727.3453979492188,657.513916015625
1767330512.434841,775.4043579101562,784.2550048828125,744.6926879882812,892.6753540039062
1767330512.4387472,757.0835571289062,761.4203491210938,738.8512573242188,823.1978149414062
1767330512.4059827,672.9140014648438,680.260009765625,719.9993896484375,573.0787963867188
1767330512.409889,675.0381469726562,693.3589477539062,722.6546020507812,586.0892333984375
1767330512.4137952,761.597412109375,763.81005859375,741.6834716796875,836.8278198242188
1767330512.4177015,781.953857421875,768.5009155273438,748.3214111328125,874.2659912109375
1767330512.4216077,704.9533081054688,698.0498046875,723.80517578125,628.7493286132812
1767330512.425514,670.9668579101562,682.6497192382812,710.440673828125,542.3670654296875
1767330512.4294202,748.409912109375,759.2077026367188,741.8604736328125,760.269775390625
1767330512.4333265,797.2654418945312,790.3619384765625,747.7904052734375,910.2880859375
1767330512.4372327,730.5316772460938,726.371826171875,724.7787475585938,719.73388671875
1767330512.441139,671.3208618164062,670.7898559570312,716.193603515625,539.0038452148438
1767330512.5142465,717.521240234375,711.59130859375,730.9741821289062,708.5820922851562
1767330512.5181527,791.3355102539062,777.3515014648438,746.2857666015625,917.4570922851562
1767330512.522059,763.4559936523438,755.4019165039062,734.9569702148438,798.3275146484375
1767330512.5259652,684.0657958984375,689.4646606445312,722.3890380859375,566.7063598632812
1767330512.5298715,698.40380859375,689.2876586914062,725.2212524414062,643.2643432617188
1767330512.5337777,782.130859375,763.1019897460938,740.267333984375,892.0557861328125
1767330512.537684,785.4940795898438,780.3607177734375,743.630615234375,870.106201171875
1767330512.5415902,705.1303100585938,711.1487426757812,724.2476806640625,618.6596069335938
1767330512.506054,685.1278686523438,682.6497192382812,724.1591796875,575.5570068359375
1767330512.5099602,758.1456298828125,739.559326171875,734.160400390625,828.9507446289062
1767330512.5138664,789.5654296875,780.9802856445312,735.7535400390625,918.9617309570312
1767330512.5177727,717.6982421875,723.982177734375,727.699462890625,678.5784301757812
1767330512.521679,665.3909301757812,665.2139282226562,719.8223876953125,552.7223510742188
1767330512.5255852,724.4246826171875,719.6453857421875,728.8500366210938,753.4547729492188
1767330512.5294914,788.1492919921875,793.99072265625,739.736328125,916.39501953125
1767330512.5333977,741.0639038085938,759.3847045898438,735.4879760742188,747.52490234375
1767330512.537304,664.7714233398438,670.6128540039062,718.3177490234375,548.7395629882812
1767330512.5412102,695.3060913085938,688.5796508789062,714.3349609375,671.6749267578125
1767330512.5451164,777.528564453125,779.564208984375,731.4166870117188,893.2948608398438
1767330512.5490227,763.7215576171875,778.3250732421875,737.1696166992188,813.2850952148438
1767330512.552929,685.2163696289062,693.8900146484375,730.089111328125,560.8649291992188
1767330512.5568352,680.9680786132812,673.4450073242188,718.3177490234375,598.214599609375
1767330512.5365043,759.8272705078125,761.7744140625,730.0006103515625,850.5463256835938
1767330512.5404105,783.3699340820312,798.239013671875,746.1087646484375,864.8843383789062
1767330512.5443168,709.6441650390625,711.5028076171875,728.23046875,629.1918334960938
1767330512.548223,672.6484985351562,666.8070678710938,711.5028076171875,558.6522827148438
1767330512.5521293,740.8869018554688,740.9754028320312,723.982177734375,781.2457885742188
1767330512.5560355,795.7608642578125,803.2838745117188,743.8076171875,906.6593627929688
1767330512.5599418,739.1167602539062,735.5765380859375,729.2925415039062,716.2821044921875
1767330512.563848,672.29443359375,655.4782104492188,711.1487426757812,552.9878540039062
1767330512.5677543,721.3269653320312,708.8475952148438,724.6902465820312,716.193603515625
1767330512.5716605,794.6987915039062,802.6643676757812,743.5421142578125,917.0145874023438
1767330512.6344075,766.4652099609375,773.5457763671875,749.560546875,786.6447143554688
1767330512.6383138,682.47265625,665.3909301757812,726.017822265625,575.3799438476562
1767330512.64222,694.6865844726562,677.9588623046875,719.3798217773438,662.7357788085938
1767330512.6461263,781.5113525390625,785.3170776367188,743.984619140625,892.7638549804688
1767330512.6500325,780.272216796875,780.44921875,743.2765502929688,867.4509887695312
1767330512.6539388,692.5624389648438,682.9152221679688,720.3533935546875,620.7837524414062
1767330512.657845,673.2680053710938,669.1967163085938,713.8924560546875,586.8858032226562
1767330512.6617513,758.3226318359375,763.1019897460938,736.196044921875,827.711669921875
1767330512.6574056,791.4240112304688,790.0079345703125,746.9938354492188,906.7478637695312
1767330512.6613119,713.2728881835938,707.9625244140625,725.663818359375,676.9852905273438
1767330512.665218,663.5323486328125,664.15185546875,716.193603515625,551.748779296875
1767330512.6691244,731.5052490234375,741.594970703125,731.94775390625,753.5433349609375
1767330512.6730306,803.4608764648438,813.2850952148438,759.3847045898438,907.3673706054688
1767330512.6769369,749.737548828125,742.0374755859375,742.5685424804688,752.127197265625
1767330512.6362731,671.4978637695312,661.1426391601562,710.263671875,561.0419311523438
1767330512.6401794,709.3786010742188,710.7062377929688,725.2212524414062,676.7197875976562
1767330512.6440856,789.742431640625,787.52978515625,747.0823364257812,908.8720092773438
1767330512.647992,769.9169921875,759.915771484375,737.6121826171875,827.0921020507812
1767330512.6518981,687.2520141601562,680.1715087890625,721.3269653320312,580.1593017578125
1767330512.6558044,689.0221557617188,688.1370849609375,723.628173828125,608.5698852539062
1767330512.6597106,769.2089233398438,767.1732788085938,740.4443359375,859.2199096679688
1767330512.663617,779.7412109375,779.8297119140625,740.9754028320312,880.8154907226562
1767330512.6675231,701.2360229492188,700.8820190429688,723.628173828125,635.2102661132812
1767330512.6714294,671.58642578125,676.36572265625,722.300537109375,565.2902221679688
1767330512.6753356,747.9674072265625,754.4283447265625,746.374267578125,782.3963623046875
1767330512.679242,792.486083984375,784.6090698242188,750.3570556640625,918.3421630859375
1767330512.6870847,723.0086059570312,721.1499633789062,726.8143920898438,726.2833251953125
1767330512.690991,666.1875,678.6669311523438,714.6890258789062,549.0935668945312
1767330512.6948972,719.6453857421875,725.3097534179688,726.7258911132812,722.4775390625
1767330512.6988034,789.6539306640625,783.3699340820312,743.0995483398438,921.616943359375
1767330512.7027097,753.6318359375,750.5341186523438,737.70068359375,786.1136474609375
1767330512.706616,672.5599975585938,681.1450805664062,717.4326782226562,557.9442138671875
1767330512.7535377,690.438232421875,695.3060913085938,721.946533203125,649.725341796875
1767330512.757444,771.3330688476562,772.129638671875,744.6926879882812,892.498291015625
1767330512.7613502,766.6422729492188,774.8733520507812,744.6926879882812,843.0232543945312
1767330512.7652564,682.0301513671875,703.1831665039062,720.7959594726562,587.859375
1767330512.7691627,672.471435546875,688.2255859375,724.5132446289062,566.6178588867188
1767330512.773069,757.0835571289062,748.409912109375,741.948974609375,829.1277465820312
1767330512.7769752,784.5205688476562,782.5734252929688,742.8340454101562,904.4466552734375
1767330512.7808814,710.3521728515625,729.55810546875,726.017822265625,658.9299926757812
1767330512.7847877,667.6036376953125,669.2852172851562,714.7775268554688,549.1820678710938
1767330512.788694,733.806396484375,714.0694580078125,732.0362548828125,760.0927734375
1767330512.7926002,792.3975830078125,783.989501953125,744.2501220703125,908.7835083007812
1767330512.7965064,738.3201904296875,749.0294799804688,729.8236083984375,722.4775390625
1767330512.7482154,664.5059204101562,670.081787109375,711.1487426757812,532.100341796875
1767330512.7521217,706.6349487304688,691.1463012695312,722.9201049804688,676.8082885742188
1767330512.756028,790.0079345703125,780.1837158203125,741.3294067382812,898.07421875
1767330512.7599342,762.5709838867188,782.48486328125,733.806396484375,802.8413696289062
1767330512.7638404,683.8887939453125,692.5624389648438,734.8684692382812,552.6338500976562
1767330512.7677467,685.3933715820312,671.0553588867188,734.6029663085938,610.6055297851562
1767330512.771653,763.2789916992188,761.6859130859375,736.01904296875,867.6280517578125
1767330512.7755592,777.9710693359375,794.5217895507812,740.5328979492188,865.7694091796875
1767330512.7794654,697.69580078125,708.8475952148438,724.336181640625,626.4481201171875
1767330512.7833717,667.9576416015625,664.328857421875,720.5304565429688,570.1580810546875
1767330512.787278,746.1087646484375,743.0110473632812,735.3109741210938,803.7264404296875
1767330512.7911842,796.7344360351562,802.8413696289062,744.5156860351562,909.4915161132812
1767330512.7950904,733.0983276367188,734.6029663085938,734.6914672851562,703.802734375
1767330512.7989967,669.3737182617188,660.7886352539062,718.4947509765625,557.4131469726562
1767330512.7925708,714.6005249023438,715.5740966796875,732.5673217773438,730.6201782226562
1767330512.796477,782.9274291992188,801.1597290039062,747.2593383789062,911.4386596679688
1767330512.8003833,747.52490234375,770.447998046875,746.7283325195312,758.4111328125
1767330512.8042896,664.0633544921875,671.9404296875,724.5132446289062,557.2361450195312
1767330512.8081958,684.7738647460938,682.0301513671875,718.40625,663.8863525390625
1767330512.812102,773.63427734375,781.1572875976562,741.2409057617188,882.8511352539062
1767330512.9120681,772.9262084960938,786.4676513671875,743.0110473632812,839.3944702148438
1767330512.9159744,689.2876586914062,693.7130126953125,724.5132446289062,598.4801025390625
1767330512.9198806,671.1438598632812,674.2415771484375,714.6005249023438,580.1593017578125
1767330512.9237869,757.0835571289062,771.2445678710938,736.9926147460938,807.709228515625
1767330512.9276931,790.0079345703125,796.6459350585938,743.3650512695312,885.8603515625
1767330512.9315994,705.9268798828125,697.69580078125,718.8488159179688,661.2311401367188
1767330512.890849,661.939208984375,654.32763671875,715.3085327148438,541.1279907226562
1767330512.8947554,735.9305419921875,738.3201904296875,734.33740234375,760.8893432617188
1767330512.8986616,800.45166015625,806.5586547851562,755.3134155273438,904.0926513671875
1767330512.9025679,739.913330078125,735.2224731445312,741.948974609375,723.1856079101562
1767330512.906474,662.6472778320312,655.2127075195312,714.6005249023438,551.0407104492188
1767330512.9103804,707.3429565429688,713.3613891601562,721.592529296875,686.5440063476562
1767330512.9142866,788.6803588867188,795.4067993164062,737.523681640625,906.5708618164062
1767330512.9181929,761.6859130859375,763.633056640625,734.2489013671875,809.3908081054688
1767330512.922099,679.1094360351562,679.0209350585938,715.9281005859375,565.2902221679688
1767330512.9260054,689.9957275390625,691.2348022460938,719.0258178710938,613.7032470703125
1767330512.9299116,778.236572265625,768.3238525390625,744.338623046875,868.5131225585938
1767330512.9338179,789.2113647460938,773.1917114257812,749.560546875,874.4429931640625
1767330512.8857973,699.1118774414062,691.4118041992188,724.2476806640625,615.7388916015625
1767330512.8897035,672.2059326171875,676.2772216796875,713.1843872070312,560.3338623046875
1767330512.8936098,756.021484375,761.8629150390625,740.8869018554688,789.2998657226562
1767330512.897516,795.4953002929688,783.1929321289062,744.0731201171875,902.0570068359375
1767330512.9014223,725.9293212890625,715.2200317382812,722.4775390625,696.5452270507812
1767330512.9053285,668.5772094726562,675.5692138671875,718.5833129882812,539.0923461914062
1767330512.9092348,723.8936767578125,726.9028930664062,733.7178955078125,733.0098266601562
1767330512.913141,796.9999389648438,784.6975708007812,747.2593383789062,923.1215209960938
1767330512.9170473,754.9594116210938,740.8869018554688,738.8512573242188,771.2445678710938
1767330512.9209535,673.0910034179688,676.4542236328125,727.9649658203125,554.3154296875
1767330512.9248598,704.333740234375,704.8648071289062,733.2753295898438,661.4081420898438
1767330512.928766,783.0159301757812,772.2181396484375,742.5685424804688,899.4017944335938
1767330512.9326723,768.2353515625,769.2974243164062,740.0018310546875,842.0496826171875
1767330512.9365785,685.2163696289062,706.2808837890625,728.1419677734375,594.7628784179688
1767330513.0181901,679.0209350585938,695.0405883789062,734.6914672851562,586.177734375
1767330513.0220964,763.1019897460938,754.5169067382812,741.6834716796875,846.2979736328125
1767330513.0260026,787.706787109375,780.09521484375,740.5328979492188,906.3052978515625
1767330513.029909,713.7154541015625,716.9901733398438,732.3902587890625,654.5932006835938
1767330513.0338151,673.799072265625,665.656494140625,722.3890380859375,556.8821411132812
1767330513.0377214,745.0466918945312,727.87646484375,732.7443237304688,781.1572875976562
1767330513.0416276,799.3010864257812,794.2562255859375,740.3558349609375,918.7847290039062
1767330513.045534,738.8512573242188,750.445556640625,728.407470703125,720.8844604492188
1767330513.0494401,669.4622192382812,673.7105712890625,715.4855346679688,543.783203125
1767330513.0533464,710.7062377929688,698.3153076171875,729.8236083984375,703.0946655273438
1767330513.0055397,785.3170776367188,780.272216796875,750.445556640625,911.2616577148438
1767330513.009446,755.9329833984375,763.5445556640625,740.7098999023438,797.7080078125
1767330513.0133522,679.3749389648438,694.6865844726562,729.6466064453125,552.6338500976562
1767330513.0172584,690.1727294921875,691.94287109375,725.0442504882812,622.0228271484375
1767330513.0211647,766.9962768554688,762.305419921875,730.6201782226562,877.1867065429688
1767330513.025071,773.0147094726562,781.3342895507812,735.9305419921875,853.821044921875
1767330513.0289772,694.6865844726562,695.9256591796875,717.9637451171875,612.110107421875
1767330513.0328834,667.0725708007812,659.8150634765625,712.3878173828125,575.5570068359375
1767330513.0367897,742.47998046875,739.1167602539062,732.5673217773438,810.098876953125
1767330513.040696,785.7596435546875,795.5838623046875,745.666259765625,898.6937866210938
1767330513.0446022,720.7074584960938,721.0614624023438,732.8328247070312,683.5347900390625
1767330513.0485084,665.3909301757812,647.9552001953125,717.0786743164062,549.0050659179688
1767330513.0524147,725.5753173828125,719.2028198242188,730.3546142578125,738.0546875
1767330513.056321,793.2826538085938,806.5586547851562,745.7547607421875,915.5985107421875
1767330513.0544214,747.87890625,761.4203491210938,741.948974609375,746.4627685546875
1767330513.0583277,672.2059326171875,662.8242797851562,719.1143188476562,546.6154174804688
1767330513.062234,700.8820190429688,688.2255859375,715.4855346679688,671.8519287109375
1767330513.0661402,787.1757202148438,789.8309326171875,742.2144775390625,894.35693359375
1767330513.0700464,777.2630004882812,775.9354248046875,740.3558349609375,833.4645385742188
1767330513.0739527,690.1727294921875,667.6036376953125,716.0166015625,587.4168090820312
1767330513.077859,683.977294921875,659.8150634765625,718.05224609375,597.5950927734375
1767330513.0817652,772.0411376953125,766.6422729492188,744.5156860351562,847.0945434570312
1767330513.1467528,794.4332275390625,788.23779296875,754.8709106445312,888.5155639648438
1767330513.150659,711.768310546875,694.6865844726562,726.4603271484375,647.5126953125
1767330513.1545653,674.330078125,659.7265625,710.5292358398438,556.5281372070312
1767330513.1584716,750.3570556640625,749.560546875,735.0454711914062,781.6883544921875
1767330513.1623778,806.9126586914062,817.887451171875,758.7651977539062,905.5087890625
1767330513.166284,740.0018310546875,732.3902587890625,736.2845458984375,718.05224609375
1767330513.1701903,666.7185668945312,655.9207763671875,706.2808837890625,552.7223510742188
1767330513.1740966,713.8924560546875,721.2384643554688,721.3269653320312,700.9705200195312
1767330513.1252294,791.5125732421875,791.5125732421875,744.4271240234375,914.00537109375
1767330513.1291356,754.9594116210938,748.3214111328125,738.3201904296875,800.274658203125
1767330513.1330419,669.6392822265625,676.188720703125,717.4326782226562,566.0867919921875
1767330513.136948,686.4554443359375,701.2360229492188,722.12353515625,627.687255859375
1767330513.1408544,770.1824951171875,778.41357421875,739.2052612304688,872.9384155273438
1767330513.1447606,774.165283203125,777.2630004882812,742.47998046875,861.963623046875
1767330513.1486669,691.5888671875,699.8199462890625,723.8936767578125,606.6227416992188
1767330513.152573,668.8427124023438,683.0037231445312,711.8568115234375,565.8212890625
1767330513.1564794,756.8180541992188,763.0134887695312,741.594970703125,797.885009765625
1767330513.1603856,795.849365234375,783.9010009765625,746.5513305664062,894.8880004882812
1767330513.1642919,715.0430297851562,709.2901000976562,716.2821044921875,683.1807250976562
1767330513.168198,663.620849609375,672.2059326171875,710.3521728515625,538.2957763671875
1767330513.1721044,728.053466796875,732.2132568359375,730.9741821289062,740.267333984375
1767330513.1760106,791.6895751953125,782.3963623046875,745.1351928710938,917.3685913085938
1767330513.1511745,742.8340454101562,739.0282592773438,733.0983276367188,751.3306274414062
1767330513.1550808,671.6749267578125,679.2864379882812,717.875244140625,542.1015625
1767330513.158987,702.7406616210938,709.8211669921875,730.6201782226562,669.55078125
1767330513.1628933,779.7412109375,779.564208984375,749.4719848632812,908.25244140625
1767330513.1667995,762.5709838867188,763.7215576171875,740.0018310546875,826.030029296875
1767330513.1707058,680.5255737304688,693.978515625,720.3533935546875,575.99951171875
1767330513.174612,686.366943359375,697.6072998046875,727.2568969726562,589.6295166015625
1767330513.1785183,765.3146362304688,757.0835571289062,737.70068359375,846.2979736328125
1767330513.1824245,781.77685546875,775.5814208984375,728.8500366210938,890.7282104492188
1767330513.1863308,706.8119506835938,716.8131713867188,720.44189453125,640.255126953125
1767330513.258685,665.656494140625,667.2495727539062,719.0258178710938,559.891357421875
1767330513.2625914,739.913330078125,726.4603271484375,730.9741821289062,790.8045043945312
1767330513.2664976,792.6631469726562,792.5746459960938,741.3294067382812,916.8375854492188
1767330513.2704039,726.8143920898438,748.8524780273438,730.6201782226562,708.4935302734375
1767330513.27431,669.6392822265625,679.3749389648438,721.946533203125,546.5269165039062
1767330513.2782164,722.5661010742188,703.5372314453125,728.8500366210938,721.8580322265625
1767330513.2821226,793.5482177734375,779.8297119140625,742.8340454101562,914.8904418945312
1767330513.2860289,762.7479858398438,774.34228515625,740.3558349609375,793.4596557617188
1767330513.289935,686.366943359375,699.0233764648438,724.6902465820312,568.7420043945312
1767330513.2938414,699.908447265625,690.438232421875,729.3810424804688,634.148193359375
1767330513.2461798,776.4664306640625,763.633056640625,735.6650390625,889.57763671875
1767330513.250086,780.0067138671875,790.450439453125,742.1259765625,859.1314086914062
1767330513.2539923,696.8992309570312,707.6085205078125,727.1683959960938,608.1273193359375
1767330513.2578986,675.0381469726562,663.1782836914062,713.0073852539062,584.6731567382812
1767330513.2618048,757.3490600585938,747.52490234375,734.33740234375,823.640380859375
1767330513.265711,792.2205810546875,799.6551513671875,743.984619140625,895.3305053710938
1767330513.2696173,721.76953125,725.5753173828125,723.8936767578125,668.22314453125
1767330513.2735236,671.4978637695312,657.513916015625,709.4671020507812,551.1292114257812
1767330513.2774298,729.0270385742188,715.3085327148438,724.7787475585938,749.560546875
1767330513.281336,794.6102905273438,790.8930053710938,747.52490234375,916.4835205078125
1767330513.2852423,748.5869750976562,760.6238403320312,749.560546875,738.0546875
1767330513.2891486,668.400146484375,676.1002197265625,718.1407470703125,540.9509887695312
1767330513.2930548,694.155517578125,693.5360107421875,713.7154541015625,682.295654296875
1767330513.296961,777.2630004882812,791.60107421875,741.0639038085938,896.8351440429688
1767330513.2944412,763.633056640625,778.8561401367188,740.1788330078125,815.9403076171875
1767330513.2983475,677.1622924804688,674.0645751953125,718.9373168945312,581.0443725585938
1767330513.3022537,679.4634399414062,671.6749267578125,719.6453857421875,609.9859619140625
1767330513.30616,766.9962768554688,774.2537841796875,737.523681640625,857.0957641601562
1767330513.3100662,784.2550048828125,793.813720703125,741.948974609375,881.966064453125
1767330513.3139725,705.4843139648438,695.3945922851562,724.2476806640625,640.8746948242188
1767330513.3178787,673.0910034179688,660.5231323242188,718.9373168945312,565.998291015625
1767330513.321785,744.8696899414062,748.3214111328125,739.3822631835938,794.7872924804688
1767330513.3864143,798.3275146484375,804.345947265625,757.7916259765625,904.7122192382812
1767330513.3903205,734.9569702148438,720.9729614257812,736.196044921875,705.661376953125
1767330513.3942268,667.51513671875,654.150634765625,713.3613891601562,558.209716796875
1767330513.398133,719.3798217773438,721.76953125,726.1063232421875,719.4683227539062
1767330513.4020393,792.3975830078125,793.99072265625,743.630615234375,917.3685913085938
1767330513.4059455,758.4111328125,751.5076904296875,734.7799682617188,794.7872924804688
1767330513.4098518,673.4450073242188,673.97607421875,716.9016723632812,568.2994384765625
1767330513.413758,691.94287109375,695.9256591796875,724.5132446289062,643.2643432617188
1767330513.3992305,781.599853515625,782.307861328125,743.984619140625,887.3649291992188
1767330513.4031367,775.5814208984375,774.7848510742188,738.8512573242188,858.3348388671875
1767330513.407043,688.1370849609375,689.8187255859375,716.2821044921875,603.2594604492188
1767330513.4109492,672.7369995117188,681.6761474609375,713.8924560546875,584.319091796875
1767330513.4148555,760.8008422851562,771.775634765625,745.9317626953125,825.3219604492188
1767330513.4187617,791.6895751953125,783.989501953125,751.5076904296875,896.9236450195312
1767330513.422668,708.6705932617188,699.1118774414062,716.8131713867188,675.834716796875
1767330513.4265742,660.257568359375,672.29443359375,710.8832397460938,549.9786376953125
1767330513.385686,733.3638305664062,740.6213989257812,734.6914672851562,758.1456298828125
1767330513.3895922,792.3975830078125,781.2457885742188,743.4535522460938,922.9445190429688
1767330513.3934984,736.9926147460938,736.196044921875,730.5316772460938,746.7283325195312
1767330513.3974047,667.4265747070312,684.154296875,724.5132446289062,545.2877807617188
1767330513.401311,702.47509765625,720.3533935546875,732.8328247070312,679.2864379882812
1767330513.4052172,783.2814331054688,785.0515747070312,741.6834716796875,903.2075805664062
1767330513.4091234,762.8364868164062,763.8985595703125,732.7443237304688,812.0460205078125
1767330513.4130297,675.3921508789062,690.438232421875,713.0958862304688,570.8661499023438
1767330513.416936,683.1807250976562,698.9348754882812,721.76953125,594.3203125
1767330513.4208422,769.3859252929688,761.2433471679688,740.8869018554688,850.28076171875
1767330513.4247484,781.5113525390625,765.845703125,736.196044921875,881.7005615234375
1767330513.4286547,702.8291625976562,708.9360961914062,723.8936767578125,628.395263671875
1767330513.4751115,672.2059326171875,681.941650390625,718.4947509765625,568.9190063476562
1767330513.4790177,747.2593383789062,738.0546875,738.7627563476562,807.4436645507812
1767330513.482924,795.67236328125,786.8217163085938,754.162841796875,918.6962280273438
1767330513.4868302,730.9741821289062,736.6386108398438,733.806396484375,701.8555908203125
1767330513.4980521,670.1702880859375,681.0565795898438,713.0073852539062,543.5177001953125
1767330513.5019584,721.76953125,718.9373168945312,724.4246826171875,726.5488891601562
1767330513.5058646,794.8757934570312,788.7688598632812,737.3466186523438,914.0938720703125
1767330513.5097709,755.0479125976562,759.915771484375,730.089111328125,775.4928588867188
1767330513.5136771,677.9588623046875,684.154296875,723.982177734375,544.2257080078125
1767330513.5175834,701.4130249023438,682.295654296875,726.7258911132812,639.4585571289062
1767330513.5214896,779.0331420898438,756.021484375,740.09033203125,898.5167846679688
1767330513.5253959,775.0503540039062,780.3607177734375,742.6570434570312,848.7761840820312
1767330513.5293021,690.7037963867188,708.1395263671875,725.1327514648438,602.285888671875
1767330513.5332084,674.6841430664062,677.7818603515625,717.6982421875,597.5950927734375
1767330513.5371146,756.6410522460938,749.2949829101562,733.1868286132812,837.9783935546875
1767330513.5410209,786.6447143554688,786.2021484375,746.9053344726562,893.1178588867188
1767330513.5449271,706.2808837890625,713.803955078125,730.7086791992188,656.36328125
1767330513.5488334,656.2747802734375,659.8150634765625,714.5120239257812,548.9165649414062
1767330513.5008662,728.053466796875,726.4603271484375,729.55810546875,761.5089111328125
1767330513.5047724,787.2642211914062,794.167724609375,741.5064697265625,917.1030883789062
1767330513.5086787,732.478759765625,755.4019165039062,745.2236938476562,722.5661010742188
1767330513.512585,663.8863525390625,666.010498046875,731.770751953125,535.1980590820312
1767330513.5164912,697.69580078125,688.6681518554688,715.5740966796875,688.5796508789062
1767330513.5203974,782.130859375,791.0700073242188,737.1696166992188,897.72021484375
1767330513.5243037,763.987060546875,775.3158569335938,739.559326171875,804.7000122070312
1767330513.52821,678.6669311523438,673.97607421875,716.9901733398438,571.3086547851562
1767330513.5321162,687.1635131835938,677.7818603515625,720.9729614257812,618.5711059570312
1767330513.5360224,774.0767822265625,776.2894287109375,739.0282592773438,861.0785522460938
1767330513.5399287,784.8745727539062,786.1136474609375,740.6213989257812,863.2026977539062
1767330513.543835,700.8820190429688,687.87158203125,723.982177734375,624.8550415039062
1767330513.5477412,673.0025024414062,668.8427124023438,717.7867431640625,572.3707275390625
1767330513.5516474,743.5421142578125,755.5789794921875,732.6558227539062,804.9655151367188
1767330513.594703,793.1056518554688,815.0552368164062,752.3927001953125,899.1362915039062
1767330513.5986092,726.7258911132812,732.478759765625,737.2581176757812,690.084228515625
1767330513.6025155,659.3724975585938,649.0172729492188,706.5464477539062,553.5189208984375
1767330513.6064217,720.3533935546875,722.300537109375,725.1327514648438,729.55810546875
1767330513.6471038,789.3883666992188,807.1781616210938,749.2064819335938,916.041015625
1767330513.65101,746.8168334960938,755.844482421875,731.4166870117188,773.7227783203125
1767330513.6549163,668.400146484375,666.0989990234375,709.2901000976562,554.8464965820312
1767330513.6588225,693.1819458007812,696.01416015625,720.44189453125,649.3712768554688
1767330513.6627288,780.9802856445312,786.9102172851562,745.2236938476562,887.5419921875
1767330513.666635,769.3859252929688,766.9077758789062,739.2937622070312,843.1117553710938
1767330513.6259322,681.6761474609375,684.0657958984375,716.193603515625,593.2582397460938
1767330513.6298385,675.2151489257812,685.1278686523438,715.7510986328125,591.3110961914062
1767330513.6337447,759.0307006835938,770.7135620117188,732.9213256835938,848.7761840820312
1767330513.637651,790.3619384765625,792.3975830078125,756.8180541992188,880.5499877929688
1767330513.6415572,708.8475952148438,701.1475219726562,731.0626831054688,645.5655517578125
1767330513.6454635,662.293212890625,663.0012817382812,709.0245971679688,556.2625732421875
1767330513.6493697,733.4523315429688,742.6570434570312,733.0983276367188,765.0491333007812
1767330513.653276,786.2021484375,784.5205688476562,741.3294067382812,915.864013671875
1767330513.6571822,730.443115234375,728.8500366210938,728.3189697265625,727.6109619140625
1767330513.6610885,664.0633544921875,679.2864379882812,713.626953125,536.5256958007812
1767330513.6649947,711.4142456054688,713.98095703125,720.8844604492188,685.3933715820312
1767330513.668901,789.8309326171875,775.2273559570312,737.3466186523438,905.4202270507812
1767330513.6611292,761.6859130859375,756.9950561523438,732.9213256835938,798.3275146484375
1767330513.6650355,676.188720703125,685.658935546875,711.6798095703125,563.0775756835938
1767330513.6689417,689.3761596679688,707.697021484375,727.7879638671875,611.4020385742188
1767330513.672848,778.6791381835938,776.8204956054688,752.7467651367188,864.353271484375
1767330513.6767542,776.7319946289062,771.5986328125,735.3109741210938,877.0982055664062
1767330513.6806605,688.3140869140625,700.9705200195312,714.6890258789062,615.9158935546875
1767330513.6845667,668.8427124023438,677.870361328125,713.8924560546875,567.3258666992188
1767330513.688473,745.9317626953125,737.9661865234375,734.7799682617188,813.3735961914062
1767330513.6923792,782.3963623046875,778.41357421875,742.7455444335938,906.7478637695312
1767330513.6962855,716.9016723632812,730.6201782226562,728.053466796875,685.3933715820312
1767330513.7001917,663.4437866210938,675.4806518554688,720.44189453125,545.5533447265625
1767330513.704098,719.4683227539062,711.6798095703125,730.0006103515625,738.8512573242188
1767330513.7080042,785.0515747070312,778.236572265625,746.2857666015625,918.1651611328125
1767330513.7119105,743.8076171875,751.4191284179688,736.01904296875,765.4031372070312
1767330513.7562323,675.65771484375,688.3140869140625,722.5661010742188,541.3049926757812
1767330513.7601385,704.8648071289062,696.01416015625,726.9913940429688,652.3804931640625
1767330513.7640448,784.0780029296875,769.2974243164062,737.7891845703125,906.8363647460938
1767330513.767951,772.129638671875,781.5113525390625,745.666259765625,840.1025390625
1767330513.7718573,687.6060791015625,699.908447265625,726.5488891601562,592.5502319335938
1767330513.7757635,678.5784301757812,668.1346435546875,716.2821044921875,602.8169555664062
1767330513.7796698,761.2433471679688,742.1259765625,738.40869140625,845.3244018554688
1767330513.783576,783.5469970703125,784.8745727539062,749.2949829101562,886.7454223632812
1767330513.7874823,706.1923828125,723.628173828125,728.6730346679688,651.4069213867188
1767330513.7913885,671.3208618164062,669.90478515625,716.9901733398438,565.998291015625
1767330513.7509751,740.7098999023438,733.7178955078125,732.3902587890625,782.2193603515625
1767330513.7548814,792.8401489257812,798.5930786132812,736.5501098632812,917.4570922851562
1767330513.7587876,743.5421142578125,751.5076904296875,737.1696166992188,717.1671752929688
1767330513.762694,674.9496459960938,667.4265747070312,725.3982543945312,539.9774169921875
1767330513.7666001,711.1487426757812,700.6165161132812,718.8488159179688,713.626953125
1767330513.7705064,790.8930053710938,790.9815063476562,742.47998046875,917.8111572265625
1767330513.7744126,763.7215576171875,769.6514892578125,742.2144775390625,803.2838745117188
1767330513.778319,681.3220825195312,676.188720703125,718.8488159179688,575.4684448242188
1767330513.7822251,694.155517578125,686.1014404296875,719.3798217773438,636.6264038085938
1767330513.7861314,778.7676391601562,786.5562133789062,743.8076171875,874.4429931640625
1767330513.7900376,782.9274291992188,795.0527954101562,745.5777587890625,862.4061279296875
1767330513.793944,698.1383056640625,692.473876953125,721.3269653320312,621.2262573242188
1767330513.7978501,675.3036499023438,666.2760009765625,720.7959594726562,575.7340087890625
1767330513.8017564,754.6939086914062,756.8180541992188,734.6029663085938,810.8069458007812
1767330513.804251,797.3539428710938,810.098876953125,751.773193359375,890.1971435546875
1767330513.8081572,722.9201049804688,723.8936767578125,737.9661865234375,670.7013549804688
1767330513.8120635,667.9576416015625,657.69091796875,712.2108154296875,558.03271484375
1767330513.8159697,733.7178955078125,730.443115234375,730.443115234375,745.7547607421875
1767330513.819876,797.7080078125,794.9642944335938,744.16162109375,913.2088012695312
1767330513.8237822,740.7098999023438,731.770751953125,731.94775390625,758.234130859375
1767330513.8276885,662.5587768554688,657.3368530273438,711.768310546875,549.1820678710938
1767330513.8315947,696.6337280273438,702.8291625976562,720.7959594726562,657.4253540039062
1767330513.8938897,776.7319946289062,794.8757934570312,746.020263671875,882.8511352539062
1767330513.897796,761.0663452148438,767.7928466796875,735.6650390625,822.6668090820312
1767330513.9017022,670.1702880859375,674.9496459960938,716.1051025390625,573.60986328125
1767330513.9056084,668.7542114257812,684.5968627929688,722.4775390625,576.7075805664062
1767330513.9095147,762.12841796875,775.0503540039062,750.5341186523438,833.0220336914062
1767330513.913421,784.9630737304688,774.9618530273438,756.198486328125,879.6649169921875
1767330513.9173272,700.439453125,687.87158203125,716.5476684570312,649.54833984375
1767330513.9212334,660.9656372070312,670.081787109375,705.2188110351562,556.174072265625
1767330513.8860185,732.8328247070312,748.5869750976562,730.26611328125,776.1124267578125
1767330513.8899248,787.8837890625,787.3527221679688,745.7547607421875,917.2800903320312
1767330513.893831,732.2132568359375,723.0971069335938,732.3017578125,720.6189575195312
1767330513.8977373,669.6392822265625,666.0989990234375,715.5740966796875,542.45556640625
1767330513.9016435,718.4947509765625,715.66259765625,726.2833251953125,706.9004516601562
1767330513.9055498,797.0884399414062,772.5722045898438,746.9938354492188,925.7767333984375
1767330513.909456,762.7479858398438,742.0374755859375,741.948974609375,806.5586547851562
1767330513.9133623,672.8255004882812,679.552001953125,718.5833129882812,572.9902954101562
1767330513.9172685,694.7750854492188,709.2901000976562,727.1683959960938,636.6264038085938
1767330513.9211748,784.8745727539062,783.5469970703125,750.0030517578125,881.3464965820312
1767330513.925081,777.70556640625,773.5457763671875,737.2581176757812,874.8855590820312
1767330513.9289873,691.2348022460938,695.4830932617188,718.229248046875,615.9158935546875
1767330513.9328935,671.4093627929688,674.5071411132812,718.5833129882812,576.9730834960938
1767330513.9367998,751.773193359375,742.5685424804688,730.7086791992188,825.85302734375
1767330513.9035625,786.9102172851562,785.84814453125,739.559326171875,903.3845825195312
1767330513.9074688,715.1315307617188,731.0626831054688,727.9649658203125,671.763427734375
1767330513.911375,666.6300659179688,683.0922241210938,720.087890625,545.1107788085938
1767330513.9152813,721.592529296875,721.6810302734375,732.5673217773438,747.2593383789062
1767330513.9191875,785.671142578125,781.8653564453125,748.9409790039062,914.8904418945312
1767330513.9230938,739.8248291015625,745.2236938476562,740.3558349609375,749.2064819335938
1767330513.927,664.0633544921875,678.4898681640625,726.017822265625,533.8704833984375
1767330513.9309063,694.7750854492188,695.0405883789062,729.55810546875,655.832275390625
1767330513.9348125,770.27099609375,768.8549194335938,731.1511840820312,904.0926513671875
1767330513.9387188,759.0307006835938,775.4928588867188,734.160400390625,826.1185302734375
1767330513.9929514,678.7554321289062,698.1383056640625,723.982177734375,579.6282958984375
1767330513.9968576,672.8255004882812,673.97607421875,715.839599609375,608.2158203125
1767330514.000764,760.9778442382812,749.6490478515625,731.2396850585938,855.1486206054688
1767330514.0046701,785.4940795898438,789.2113647460938,741.6834716796875,879.8419189453125
1767330514.0085764,708.1395263671875,721.8580322265625,728.23046875,639.547119140625
1767330514.0124826,674.153076171875,665.656494140625,715.1315307617188,570.1580810546875
1767330514.016389,747.87890625,730.5316772460938,726.9028930664062,798.6815795898438
1767330514.0202951,796.9999389648438,794.8757934570312,744.0731201171875,913.1203002929688
1767330514.0242014,733.4523315429688,746.6398315429688,729.735107421875,731.0626831054688
1767330514.0281076,679.1979370117188,674.7726440429688,716.1051025390625,559.4487915039062
1767330514.032014,734.9569702148438,707.7855224609375,737.2581176757812,710.1751708984375
1767330514.0359201,803.991943359375,784.6090698242188,746.5513305664062,929.3169555664062
1767330514.0398264,770.0054931640625,766.9962768554688,733.0983276367188,792.6631469726562
1767330514.0437326,682.6497192382812,673.0910034179688,712.3878173828125,570.6006469726562
1767330514.003345,698.226806640625,685.1278686523438,722.4775390625,648.6632690429688
1767330514.0072513,780.6262817382812,783.635498046875,747.4363403320312,879.6649169921875
1767330514.0111575,775.846923828125,783.8125,745.5777587890625,853.821044921875
1767330514.0150638,691.0578002929688,686.2784423828125,723.7166748046875,609.8974609375
1767330514.01897,673.8875732421875,669.8162841796875,716.9016723632812,586.6203002929688
1767330514.0228763,757.0835571289062,761.2433471679688,735.1339721679688,830.1898193359375
1767330514.0267825,794.8757934570312,810.098876953125,752.3927001953125,890.0201416015625
1767330514.0306888,719.910888671875,719.556884765625,742.302978515625,658.4874267578125
1767330514.034595,658.221923828125,650.3448486328125,715.5740966796875,558.4752197265625
1767330514.0385013,719.0258178710938,724.6017456054688,727.9649658203125,754.0743408203125
1767330514.0424075,786.5562133789062,793.0171508789062,753.6318359375,910.0225830078125
1767330514.0463138,736.4615478515625,739.0282592773438,737.4351196289062,743.0995483398438
1767330514.0526767,663.4437866210938,668.3116455078125,711.9453125,545.5533447265625
1767330514.056583,702.12109375,708.22802734375,721.6810302734375,672.2059326171875
1767330514.0604892,788.23779296875,800.0091552734375,746.2857666015625,896.392578125
1767330514.0643954,770.27099609375,772.5722045898438,740.6213989257812,823.3748168945312
1767330514.0683017,681.0565795898438,674.4185791015625,719.1143188476562,578.4776611328125
1767330514.072208,679.8175048828125,676.36572265625,716.37060546875,606.4456787109375
1767330514.1129417,772.129638671875,774.5193481445312,746.9053344726562,849.6612548828125
1767330514.116848,792.30908203125,783.7239990234375,759.0307006835938,869.1326293945312
1767330514.1207542,702.6521606445312,689.55322265625,720.1763916015625,641.4057006835938
1767330514.1246605,671.4093627929688,667.2495727539062,712.3878173828125,568.7420043945312
1767330514.1285667,751.0651245117188,754.4283447265625,742.302978515625,796.6459350585938
1767330514.132473,793.7252197265625,794.5217895507812,747.6134033203125,916.1295166015625
1767330514.1363792,727.6109619140625,726.8143920898438,728.8500366210938,707.52001953125
1767330514.1402855,664.8599243164062,668.7542114257812,716.2821044921875,545.995849609375
1767330514.1441917,714.8660278320312,722.9201049804688,728.053466796875,716.4591064453125
1767330514.148098,790.6275024414062,788.1492919921875,745.4891967773438,916.8375854492188
1767330514.1520042,751.0651245117188,749.2949829101562,736.2845458984375,779.564208984375
1767330514.1559105,666.7185668945312,675.834716796875,713.8924560546875,550.067138671875
1767330514.1598167,693.4474487304688,708.4935302734375,727.9649658203125,629.6343994140625
1767330514.163723,777.7940673828125,777.882568359375,753.0122680664062,872.4073486328125
1767330514.1155229,761.8629150390625,758.6766967773438,736.9041137695312,851.5198974609375
1767330514.119429,671.9404296875,691.5888671875,720.9729614257812,596.35595703125
1767330514.1233354,661.939208984375,685.1278686523438,725.9293212890625,582.3719482421875
1767330514.1272416,744.8696899414062,750.091552734375,731.6822509765625,833.818603515625
1767330514.1311479,774.7848510742188,783.989501953125,737.70068359375,897.4546508789062
1767330514.135054,701.3245239257812,724.336181640625,726.8143920898438,662.3817138671875
1767330514.1389604,658.044921875,678.224365234375,713.4498901367188,545.0222778320312
1767330514.1428666,732.478759765625,726.9913940429688,726.1063232421875,762.305419921875
1767330514.1467729,801.779296875,781.6883544921875,741.594970703125,918.8732299804688
1767330514.150679,750.445556640625,739.4707641601562,727.7879638671875,740.4443359375
1767330514.1545854,681.941650390625,694.8635864257812,715.3970336914062,540.9509887695312
1767330514.1584916,727.9649658203125,722.2120361328125,735.6650390625,675.4806518554688
1767330514.1623979,802.4873046875,777.3515014648438,738.3201904296875,916.4835205078125
1767330514.166304,776.200927734375,766.8192749023438,726.9028930664062,817.533447265625
1767330514.1797676,694.5980834960938,691.8543701171875,715.5740966796875,571.4856567382812
1767330514.1836739,698.9348754882812,680.7910766601562,716.5476684570312,624.323974609375
1767330514.18758,780.7147827148438,759.2077026367188,737.9661865234375,871.61083984375
1767330514.1914864,791.8665771484375,786.4676513671875,744.9581909179688,879.2223510742188
1767330514.2772746,715.5740966796875,709.1130981445312,726.4603271484375,633.2631225585938
1767330514.2811809,686.2784423828125,660.5231323242188,721.76953125,577.2385864257812
1767330514.285087,759.561767578125,736.2845458984375,740.267333984375,812.9310913085938
1767330514.2889934,805.1425170898438,793.2826538085938,746.9053344726562,923.7410888671875
1767330514.2928996,735.6650390625,745.84326171875,734.5144653320312,701.5015869140625
1767330514.2968059,670.7898559570312,678.4898681640625,721.3269653320312,539.534912109375
1767330514.2689445,718.1407470703125,710.263671875,721.592529296875,734.0718994140625
1767330514.2728508,784.9630737304688,791.5125732421875,742.9225463867188,917.1030883789062
1767330514.276757,743.0110473632812,763.633056640625,740.5328979492188,769.2089233398438
1767330514.2806633,662.47021484375,671.4978637695312,714.3349609375,558.209716796875
1767330514.2845695,681.2335815429688,684.4197998046875,722.0350341796875,653.61962890625
1767330514.2884758,764.0755615234375,776.200927734375,746.9053344726562,887.0109252929688
1767330514.292382,761.4203491210938,782.5734252929688,741.5064697265625,838.5094604492188
1767330514.2962883,676.8967895507812,684.4197998046875,716.8131713867188,596.9755249023438
1767330514.3001945,666.8070678710938,662.2047119140625,713.98095703125,590.8685913085938
1767330514.3041008,751.3306274414062,753.98583984375,735.6650390625,833.818603515625
1767330514.308007,783.1044311523438,802.2218017578125,747.2593383789062,879.3108520507812
1767330514.3119133,713.8924560546875,717.875244140625,733.806396484375,644.0609130859375
1767330514.2632024,669.3737182617188,657.69091796875,713.0073852539062,559.891357421875
1767330514.2671087,732.2132568359375,734.6029663085938,724.1591796875,763.0134887695312
1767330514.271015,795.0527954101562,801.2482299804688,745.0466918945312,906.216796875
1767330514.2749212,743.8961181640625,734.8684692382812,731.5052490234375,734.6914672851562
1767330514.2788274,669.727783203125,655.2127075195312,707.697021484375,542.278564453125
1767330514.2827337,709.732666015625,706.015380859375,720.1763916015625,680.3485107421875
1767330514.28664,792.6631469726562,803.1068725585938,742.7455444335938,898.251220703125
1767330514.2905462,764.7836303710938,763.633056640625,740.7984008789062,810.452880859375
1767330514.2944524,674.8611450195312,667.4265747070312,721.2384643554688,572.1937255859375
1767330514.2983587,679.1094360351562,679.4634399414062,716.9901733398438,616.8009643554688
1767330514.302265,770.27099609375,781.8653564453125,746.020263671875,859.3084106445312
1767330514.3061712,785.9366455078125,789.6539306640625,755.4019165039062,858.1578369140625
1767330514.3100774,697.4302368164062,687.517578125,722.4775390625,630.6964721679688
1767330514.3139837,665.83349609375,668.1346435546875,713.626953125,569.715576171875
1767330514.3813684,739.736328125,756.4639892578125,735.0454711914062,796.7344360351562
1767330514.3852746,776.2894287109375,786.025146484375,744.338623046875,908.075439453125
1767330514.389181,708.3165283203125,713.3613891601562,728.4959716796875,693.2704467773438
1767330514.3930871,653.0885620117188,663.0012817382812,712.7418823242188,542.45556640625
1767330514.3969934,707.6085205078125,723.4511108398438,726.2833251953125,722.6546020507812
1767330514.4008996,778.236572265625,780.7147827148438,743.0110473632812,910.5536499023438
1767330514.404806,740.09033203125,737.3466186523438,732.0362548828125,768.2353515625
1767330514.4087121,664.2403564453125,673.0025024414062,720.44189453125,549.0935668945312
1767330514.4126184,688.9336547851562,698.5808715820312,727.1683959960938,657.513916015625
1767330514.4165246,770.9790649414062,767.7928466796875,737.523681640625,920.1123046875
1767330514.3958414,765.845703125,765.845703125,748.4984130859375,829.4817504882812
1767330514.3997476,683.2692260742188,688.1370849609375,732.478759765625,565.3787231445312
1767330514.4036539,679.3749389648438,683.977294921875,719.2028198242188,602.9939575195312
1767330514.40756,763.633056640625,753.98583984375,738.4971923828125,847.537109375
1767330514.4114664,778.8561401367188,773.1032104492188,744.6041870117188,882.0545654296875
1767330514.4153726,703.0061645507812,709.3786010742188,727.2568969726562,641.759765625
1767330514.4192789,666.8070678710938,673.8875732421875,721.592529296875,546.5269165039062
1767330514.423185,735.842041015625,727.4338989257812,735.2224731445312,770.7135620117188
1767330514.4270914,787.7952880859375,779.564208984375,746.020263671875,913.4743041992188
1767330514.4309976,726.371826171875,734.160400390625,733.62939453125,722.2120361328125
1767330514.4349039,666.2760009765625,676.8082885742188,717.1671752929688,529.4451293945312
1767330514.43881,710.8832397460938,704.4222412109375,726.19482421875,669.1082153320312
1767330514.4427164,781.0687866210938,764.9606323242188,731.6822509765625,901.968505859375
1767330514.4466226,754.4283447265625,750.091552734375,728.7615356445312,796.6459350585938
1767330514.4213638,669.2852172851562,678.6669311523438,724.6017456054688,551.92578125
1767330514.42527,677.4277954101562,673.6220703125,725.3982543945312,616.5354614257812
1767330514.4291763,764.6066284179688,757.1720581054688,733.9833984375,866.9199829101562
1767330514.4330826,772.8377075195312,787.8837890625,737.4351196289062,858.9544067382812
1767330514.4369888,689.3761596679688,718.1407470703125,724.0706787109375,607.86181640625
1767330514.440895,661.1426391601562,671.763427734375,714.3349609375,568.4764404296875
1767330514.4448013,736.373046875,738.6742553710938,729.2925415039062,806.9126586914062
1767330514.4487076,773.811279296875,787.2642211914062,738.1431884765625,898.6052856445312
1767330514.508736,705.4843139648438,733.2753295898438,727.2568969726562,674.5071411132812
1767330514.5126421,658.4874267578125,669.3737182617188,726.371826171875,531.6578369140625
1767330514.5165484,719.3798217773438,708.5820922851562,732.5673217773438,743.630615234375
1767330514.5204546,791.1585083007812,786.7332153320312,740.1788330078125,921.3513793945312
1767330514.524361,752.6582641601562,757.0835571289062,731.94775390625,761.2433471679688
1767330514.5282671,676.1002197265625,664.15185546875,711.2372436523438,559.0062866210938
1767330514.5321734,703.4486694335938,683.80029296875,717.1671752929688,666.6300659179688
1767330514.5360796,788.9458618164062,785.4940795898438,739.2937622070312,897.72021484375
1767330514.501098,780.8917846679688,790.8045043945312,743.1880493164062,838.5979614257812
1767330514.5050042,694.5095825195312,688.5796508789062,720.44189453125,594.4088134765625
1767330514.5089104,687.3405151367188,672.9140014648438,717.1671752929688,602.285888671875
1767330514.5128167,767.4387817382812,766.19970703125,740.9754028320312,848.7761840820312
1767330514.516723,788.6803588867188,806.6471557617188,749.2949829101562,881.612060546875
1767330514.5206292,714.4234619140625,715.3085327148438,732.6558227539062,637.0689086914062
1767330514.5245354,671.8519287109375,650.9644165039062,707.7855224609375,564.1396484375
1767330514.5284417,740.5328979492188,733.4523315429688,723.3626098632812,782.5734252929688
1767330514.532348,803.1953735351562,806.7356567382812,743.8076171875,909.2260131835938
1767330514.5362542,744.8696899414062,737.70068359375,727.6109619140625,724.8672485351562
1767330514.5401604,673.2680053710938,656.6288452148438,711.6798095703125,547.9429931640625
1767330514.5440667,714.5120239257812,705.9268798828125,723.5396728515625,695.2175903320312
1767330514.547973,789.5654296875,801.2482299804688,749.8260498046875,901.8800048828125
1767330514.5518792,755.4019165039062,764.6951293945312,740.5328979492188,794.2562255859375
1767330514.518535,668.3116455078125,667.6036376953125,713.0073852539062,563.4315795898438
1767330514.5224411,677.0737915039062,677.516357421875,712.6533813476562,624.7665405273438
1767330514.5263474,759.8272705078125,779.6527099609375,741.6834716796875,863.3796997070312
1767330514.5302536,770.5365600585938,788.060791015625,751.3306274414062,848.5991821289062
1767330514.53416,679.2864379882812,683.0037231445312,717.3441772460938,619.3676147460938
1767330514.5380661,653.61962890625,658.5759887695312,712.476318359375,586.7973022460938
1767330514.5419724,737.0811157226562,751.5076904296875,742.3914794921875,823.994384765625
1767330514.5458786,770.0054931640625,782.8389282226562,746.1087646484375,909.6685791015625
1767330514.549785,702.2095947265625,709.732666015625,725.4867553710938,688.4910888671875
1767330514.5536911,653.4425659179688,663.620849609375,717.2556762695312,554.3154296875
1767330514.6207798,716.9901733398438,730.1776123046875,729.0270385742188,747.7904052734375
1767330514.624686,788.23779296875,792.8401489257812,742.0374755859375,930.467529296875
1767330514.6285923,747.4363403320312,740.8869018554688,733.4523315429688,768.412353515625
1767330514.6324985,678.04736328125,670.5243530273438,713.7154541015625,556.2625732421875
1767330514.6364048,715.0430297851562,717.9637451171875,730.26611328125,664.4173583984375
1767330514.640311,806.027587890625,793.99072265625,758.6766967773438,890.0201416015625
1767330514.6442173,785.7596435546875,755.844482421875,736.9926147460938,840.1910400390625
1767330514.6481235,693.978515625,679.1979370117188,711.59130859375,590.9570922851562
1767330514.6520298,694.6865844726562,693.0049438476562,718.7603149414062,600.6043090820312
1767330514.655936,781.5113525390625,763.8985595703125,740.7984008789062,858.6004028320312
1767330514.6598423,797.3539428710938,777.0859985351562,743.2765502929688,890.1971435546875
1767330514.6637485,715.3085327148438,706.6349487304688,722.7431030273438,634.8562622070312
1767330514.6676548,681.1450805664062,684.7738647460938,717.521240234375,545.2877807617188
1767330514.671561,751.2421264648438,749.560546875,733.4523315429688,778.9446411132812
1767330514.6309276,797.531005859375,792.30908203125,744.4271240234375,911.2616577148438
1767330514.6348338,733.1868286132812,731.0626831054688,724.6017456054688,711.0602416992188
1767330514.63874,668.4886474609375,678.4898681640625,711.6798095703125,534.31298828125
1767330514.6426463,718.1407470703125,720.087890625,734.0718994140625,688.7566528320312
1767330514.6465526,787.706787109375,773.3687133789062,741.8604736328125,913.828369140625
1767330514.6504588,750.7111206054688,749.1179809570312,729.2040405273438,791.8665771484375
1767330514.654365,670.5243530273438,678.4013671875,717.7867431640625,551.3947143554688
1767330514.6582713,689.0221557617188,681.3220825195312,721.3269653320312,634.5022583007812
1767330514.6621776,776.7319946289062,767.88134765625,741.594970703125,885.3292846679688
1767330514.6660838,775.669921875,787.52978515625,743.4535522460938,862.2291259765625
1767330514.66999,691.5003662109375,714.0694580078125,722.4775390625,609.1008911132812
1767330514.6738963,672.29443359375,677.6048583984375,716.37060546875,584.7616577148438
1767330514.656904,749.560546875,744.7811889648438,733.7178955078125,831.6944580078125
1767330514.6608102,782.5734252929688,788.060791015625,740.0018310546875,909.580078125
1767330514.6647165,714.4234619140625,731.94775390625,731.2396850585938,677.870361328125
1767330514.6686227,670.8783569335938,673.3565063476562,729.1155395507812,540.9509887695312
1767330514.672529,726.8143920898438,708.7590942382812,730.3546142578125,758.9421997070312
1767330514.6764352,787.706787109375,778.5906372070312,739.2937622070312,927.8123779296875
1767330514.7876723,742.1259765625,749.91455078125,736.9041137695312,753.7203369140625
1767330514.7915785,669.4622192382812,666.7185668945312,722.7431030273438,559.891357421875
1767330514.7439198,706.4578857421875,690.3497314453125,726.4603271484375,680.260009765625
1767330514.747826,786.1136474609375,777.3515014648438,746.6398315429688,897.6317138671875
1767330514.7517323,770.447998046875,769.4744262695312,743.8961181640625,817.6219482421875
1767330514.7556386,688.4910888671875,683.0037231445312,723.8936767578125,580.4248046875
1767330514.7595448,688.402587890625,678.5784301757812,720.3533935546875,606.003173828125
1767330514.763451,774.2537841796875,765.4031372070312,738.40869140625,852.9359741210938
1767330514.7673573,792.6631469726562,794.2562255859375,746.9938354492188,872.6729125976562
1767330514.7712636,712.8303833007812,710.1751708984375,729.3810424804688,616.181396484375
1767330514.7751698,671.1438598632812,655.3012084960938,710.440673828125,560.3338623046875
1767330514.779076,738.9397583007812,731.3281860351562,723.80517578125,792.486083984375
1767330514.7829823,793.813720703125,804.8770141601562,747.4363403320312,906.1282958984375
1767330514.7868886,732.7443237304688,734.33740234375,736.196044921875,712.7418823242188
1767330514.7907948,664.2403564453125,655.6552734375,718.3177490234375,548.385498046875
1767330514.794701,713.0073852539062,715.9281005859375,728.7615356445312,713.4498901367188
1767330514.7557843,790.450439453125,805.4080200195312,746.2857666015625,911.8812255859375
1767330514.7596905,759.915771484375,761.3318481445312,737.2581176757812,793.0171508789062
1767330514.7635968,674.5956420898438,670.3472900390625,716.8131713867188,569.0960083007812
1767330514.767503,690.438232421875,688.4910888671875,718.7603149414062,648.4862060546875
1767330514.7714093,781.4227905273438,785.5826416015625,745.4006958007812,885.1522827148438
1767330514.7753155,780.09521484375,789.3883666992188,749.2064819335938,842.4921875
1767330514.7792218,690.5267944335938,686.8095092773438,717.521240234375,616.0928955078125
1767330514.783128,673.2680053710938,671.4093627929688,711.8568115234375,599.8077392578125
1767330514.7870343,752.7467651367188,762.6594848632812,735.7535400390625,829.4817504882812
1767330514.7909405,783.1929321289062,783.4584350585938,743.4535522460938,903.9156494140625
1767330514.7948468,709.2015991210938,704.333740234375,723.982177734375,674.6841430664062
1767330514.798753,660.5231323242188,666.7185668945312,711.768310546875,551.92578125
1767330514.8026593,729.2925415039062,744.0731201171875,728.8500366210938,753.8973388671875
1767330514.8065655,796.4688720703125,799.3010864257812,743.984619140625,920.1123046875
1767330514.8477488,739.559326171875,740.9754028320312,732.5673217773438,749.2064819335938
1767330514.851655,664.7714233398438,667.7806396484375,716.37060546875,547.7659912109375
1767330514.9073875,711.2372436523438,716.37060546875,730.7971801757812,674.5956420898438
1767330514.9112937,796.9999389648438,797.2654418945312,757.9686279296875,891.5247802734375
1767330514.8969991,763.987060546875,755.0479125976562,732.7443237304688,817.887451171875
1767330514.9009054,679.1094360351562,679.1979370117188,709.1130981445312,564.8477172851562
1767330514.9048116,685.5704345703125,694.6865844726562,719.0258178710938,598.9226684570312
1767330514.9087179,764.9606323242188,763.8985595703125,734.7799682617188,860.5475463867188
1767330514.9126241,778.7676391601562,769.4744262695312,734.6029663085938,871.61083984375
1767330514.9165304,697.3417358398438,699.8199462890625,715.3085327148438,623.4389038085938
1767330514.875948,667.9576416015625,682.7382202148438,715.0430297851562,548.385498046875
1767330514.8798542,746.2857666015625,750.0030517578125,732.124755859375,786.5562133789062
1767330514.8837605,792.6631469726562,789.6539306640625,736.9926147460938,904.5352172851562
1767330514.8876667,726.19482421875,719.2913208007812,719.8223876953125,688.6681518554688
1767330514.891573,662.3817138671875,663.0012817382812,710.440673828125,531.1267700195312
1767330514.8954792,717.4326782226562,725.0442504882812,732.2132568359375,699.554443359375
1767330514.8993855,784.5205688476562,781.77685546875,739.2052612304688,908.3409423828125
1767330514.9032917,742.9225463867188,748.23291015625,725.3097534179688,778.5906372070312
1767330514.907198,668.6657104492188,688.7566528320312,721.1499633789062,549.3590698242188
1767330514.9111042,691.3233032226562,691.5003662109375,727.87646484375,647.7781982421875
1767330514.9150105,777.0859985351562,760.44677734375,742.3914794921875,893.3833618164062
1767330514.9189167,776.200927734375,769.8284912109375,741.3294067382812,853.1129760742188
1767330514.8985634,692.5624389648438,698.4923095703125,722.4775390625,600.8698120117188
1767330514.9024696,682.6497192382812,675.0381469726562,722.3890380859375,596.8870239257812
1767330514.906376,764.9606323242188,748.1444091796875,738.8512573242188,843.2002563476562
1767330514.9102821,790.2734375,784.9630737304688,741.3294067382812,897.9857177734375
1767330514.9141884,711.6798095703125,726.6373901367188,725.8408203125,657.7794189453125
1767330514.9180946,672.8255004882812,677.0737915039062,720.3533935546875,536.7026977539062
1767330514.922001,731.94775390625,720.7074584960938,729.6466064453125,763.81005859375
1767330514.9259071,784.6975708007812,785.2285766601562,744.16162109375,924.5376586914062
1767330514.9298134,736.373046875,751.9501953125,734.160400390625,739.4707641601562
1767330514.9337196,666.4530029296875,672.5599975585938,713.8924560546875,554.8464965820312
1767330514.937626,708.4935302734375,699.2003784179688,723.1856079101562,693.1819458007812
1767330514.9415321,788.6803588867188,783.5469970703125,742.47998046875,908.6065063476562
1767330514.9959195,675.4806518554688,655.7437744140625,715.5740966796875,566.4407958984375
1767330514.9998257,752.2156982421875,738.3201904296875,728.3189697265625,807.0011596679688
