timestamp,tp9,af7,af8,tp10
1767330495.648607,669.55078125,682.7382202148438,727.5224609375,545.5533447265625
1767330495.6525133,681.2335815429688,672.9140014648438,716.7246704101562,641.4057006835938
1767330495.6949115,761.7744140625,761.2433471679688,739.559326171875,888.6040649414062
1767330495.6988177,765.4031372070312,777.6170654296875,744.7811889648438,855.3256225585938
1767330495.702724,685.3933715820312,685.7474365234375,723.80517578125,612.0216064453125
1767330495.7066302,667.0725708007812,657.2483520507812,718.8488159179688,581.2213745117188
1767330495.7105365,748.9409790039062,750.091552734375,736.8156127929688,820.9851684570312
1767330495.7144427,793.5482177734375,810.0103759765625,748.9409790039062,903.2075805664062
1767330495.6765232,722.0350341796875,727.2568969726562,727.4338989257812,679.4634399414062
1767330495.6804295,667.869140625,661.0541381835938,717.1671752929688,552.6338500976562
1767330495.6843357,730.443115234375,729.2925415039062,731.3281860351562,754.7824096679688
1767330495.688242,802.7528686523438,812.8425903320312,750.2685546875,924.7146606445312
1767330495.6921482,758.4996337890625,756.4639892578125,745.3121948242188,750.445556640625
1767330495.6960545,676.7197875976562,651.93798828125,714.3349609375,559.537353515625
1767330495.6999607,710.086669921875,690.3497314453125,719.9993896484375,684.4197998046875
1767330495.703867,791.778076171875,790.8045043945312,744.7811889648438,902.4110107421875
1767330495.7077732,775.4043579101562,771.2445678710938,739.913330078125,833.2875366210938
1767330495.7116795,690.5267944335938,682.47265625,717.6982421875,588.21337890625
1767330495.7155857,686.4554443359375,685.8359375,712.0338134765625,602.0203857421875
1767330495.719492,771.95263671875,777.70556640625,738.0546875,851.2543334960938
1767330495.7233982,790.9815063476562,791.4240112304688,744.2501220703125,887.89599609375
1767330495.7273045,706.1038818359375,703.802734375,718.1407470703125,636.8919067382812
1767330495.7137876,667.1610717773438,661.4081420898438,710.6177368164062,552.9878540039062
1767330495.7176938,747.0823364257812,752.0386962890625,739.0282592773438,781.4227905273438
1767330495.7216,803.2838745117188,807.88623046875,763.5445556640625,902.9420776367188
1767330495.7255063,724.6017456054688,716.4591064453125,729.912109375,712.9188842773438
1767330495.7294126,654.150634765625,658.39892578125,703.5372314453125,546.2613525390625
1767330495.7333188,707.52001953125,731.0626831054688,725.663818359375,711.5028076171875
1767330495.737225,771.6871337890625,793.63671875,746.9938354492188,923.2100219726562
1767330495.7411313,726.9913940429688,744.6041870117188,731.6822509765625,790.8930053710938
1767330495.7450376,648.397705078125,671.2323608398438,711.0602416992188,552.27978515625
1767330495.7489438,673.6220703125,699.908447265625,724.4246826171875,635.0332641601562
1767330495.75285,762.9249877929688,776.1124267578125,747.4363403320312,887.0994262695312
1767330495.7567563,766.6422729492188,769.2974243164062,742.3914794921875,858.42333984375
1767330495.843026,686.5440063476562,686.1014404296875,718.229248046875,603.613525390625
1767330495.8469322,674.8611450195312,690.1727294921875,722.300537109375,577.504150390625
1767330495.8263235,762.2169189453125,770.1824951171875,747.52490234375,823.5518798828125
1767330495.8302298,789.6539306640625,777.6170654296875,737.3466186523438,912.9432983398438
1767330495.834136,711.768310546875,705.1303100585938,713.7154541015625,678.7554321289062
1767330495.8380423,674.0645751953125,668.4886474609375,708.7590942382812,550.7752075195312
1767330495.8419485,740.5328979492188,726.6373901367188,727.4338989257812,768.1468505859375
1767330495.8458548,792.2205810546875,783.7239990234375,744.8696899414062,927.8123779296875
1767330495.849761,739.2937622070312,743.7191162109375,734.9569702148438,746.2857666015625
1767330495.8536673,670.3472900390625,684.7738647460938,717.875244140625,539.888916015625
1767330495.8575735,708.7590942382812,703.3601684570312,723.628173828125,676.4542236328125
1767330495.8614798,788.5918579101562,763.987060546875,747.6134033203125,908.429443359375
1767330495.865386,768.7664184570312,755.0479125976562,739.4707641601562,821.0736694335938
1767330495.8692923,684.6853637695312,695.1290893554688,717.875244140625,564.9362182617188
1767330495.8731985,690.084228515625,692.5624389648438,729.0270385742188,588.3018798828125
1767330495.8771048,770.447998046875,755.4019165039062,736.7271118164062,864.2647705078125
1767330495.8284574,784.2550048828125,778.1480712890625,736.2845458984375,886.8339233398438
1767330495.8323636,705.3958129882812,712.0338134765625,725.4867553710938,625.7401123046875
1767330495.8362699,667.3380737304688,673.0025024414062,720.087890625,561.4844360351562
1767330495.840176,738.1431884765625,740.3558349609375,735.3109741210938,796.8229370117188
1767330495.8440824,782.9274291992188,796.0263671875,743.0995483398438,907.54443359375
1767330495.8479886,717.6097412109375,744.16162109375,730.3546142578125,690.1727294921875
1767330495.8518949,654.6817016601562,664.9484252929688,715.5740966796875,527.4979858398438
1767330495.855801,706.2808837890625,702.9176635742188,722.12353515625,704.4222412109375
1767330495.8597074,779.2986450195312,786.4676513671875,736.6386108398438,901.968505859375
1767330495.8636136,744.5156860351562,766.7307739257812,731.770751953125,760.3582763671875
1767330495.8675199,667.7806396484375,681.0565795898438,724.8672485351562,527.85205078125
1767330495.871426,687.3405151367188,679.6405029296875,720.7959594726562,641.2286987304688
1767330495.8753324,773.3687133789062,771.5986328125,733.1868286132812,895.1535034179688
1767330495.8792386,779.3871459960938,788.5918579101562,743.630615234375,849.0416870117188
1767330495.887878,702.6521606445312,695.9256591796875,723.80517578125,607.2422485351562
1767330495.8917842,685.2163696289062,669.2852172851562,715.7510986328125,596.8870239257812
1767330495.9545627,763.1904907226562,755.3134155273438,735.1339721679688,841.607177734375
1767330495.958469,797.9735107421875,801.1597290039062,742.302978515625,904.2696533203125
1767330495.9623752,725.3982543945312,714.3349609375,727.6109619140625,673.5335693359375
1767330495.9662814,675.4806518554688,658.6644897460938,724.6017456054688,542.278564453125
1767330495.9701877,736.196044921875,723.628173828125,734.2489013671875,760.8008422851562
1767330495.974094,797.531005859375,799.3010864257812,741.5064697265625,929.0514526367188
1767330495.9780002,748.1444091796875,748.3214111328125,742.6570434570312,728.6730346679688
1767330495.9819064,676.6312866210938,657.513916015625,718.05224609375,554.0499267578125
1767330495.9335792,714.3349609375,704.333740234375,718.9373168945312,698.9348754882812
1767330495.9374855,787.3527221679688,798.5930786132812,743.984619140625,907.6329345703125
1767330495.9413917,758.1456298828125,764.341064453125,737.6121826171875,820.10009765625
1767330495.945298,671.1438598632812,664.8599243164062,713.0958862304688,575.99951171875
1767330495.9492042,673.5335693359375,676.9852905273438,716.5476684570312,613.4376831054688
1767330495.9531105,757.0835571289062,775.1388549804688,744.0731201171875,862.9371948242188
1767330495.9570167,772.306640625,775.7584228515625,745.4891967773438,878.1602783203125
1767330495.960923,693.978515625,690.438232421875,719.910888671875,629.9884033203125
1767330495.9648292,663.4437866210938,671.6749267578125,718.05224609375,562.9005737304688
1767330495.9687355,738.7627563476562,764.9606323242188,740.1788330078125,793.4596557617188
1767330495.9726417,795.7608642578125,814.170166015625,757.880126953125,897.9857177734375
1767330495.976548,727.699462890625,719.6453857421875,732.8328247070312,699.4658813476562
1767330495.9804542,663.8863525390625,660.08056640625,710.7947387695312,545.2877807617188
1767330495.9843605,726.017822265625,732.3902587890625,729.735107421875,717.875244140625
1767330495.9511273,795.7608642578125,786.6447143554688,742.47998046875,914.8019409179688
1767330495.9550335,755.7559814453125,741.2409057617188,731.1511840820312,772.5722045898438
1767330495.9589398,680.1715087890625,674.5956420898438,715.4855346679688,544.314208984375
1767330495.962846,709.4671020507812,701.8555908203125,721.592529296875,639.3700561523438
1767330495.9667523,798.239013671875,782.130859375,745.2236938476562,896.03857421875
1767330495.9706585,787.8837890625,777.882568359375,744.7811889648438,851.8739013671875
1767330495.9745648,695.3945922851562,693.1819458007812,717.875244140625,596.35595703125
1767330495.978471,687.517578125,687.4290161132812,723.80517578125,592.9042358398438
1767330495.9823773,775.1388549804688,765.4916381835938,753.1007690429688,837.0933227539062
1767330495.9862835,796.38037109375,771.8641357421875,743.984619140625,914.0938720703125
1767330496.0663395,715.0430297851562,699.4658813476562,719.73388671875,679.8175048828125
1767330496.0702457,668.8427124023438,671.763427734375,716.9901733398438,558.4752197265625
1767330496.074152,733.0983276367188,728.4959716796875,735.2224731445312,778.5906372070312
1767330496.0780582,790.5390014648438,778.6791381835938,750.1800537109375,935.512451171875
1767330496.0819645,732.2132568359375,730.7086791992188,737.9661865234375,745.0466918945312
1767330496.0858707,663.2667846679688,675.65771484375,715.7510986328125,544.8452758789062
1767330496.089777,704.6878051757812,707.2544555664062,724.0706787109375,694.7750854492188
1767330496.0936832,778.9446411132812,774.9618530273438,740.4443359375,914.9789428710938
1767330496.0975895,753.8973388671875,755.844482421875,728.5845336914062,805.4080200195312
1767330496.1014957,673.3565063476562,687.0750122070312,716.8131713867188,559.6258544921875
1767330496.053799,680.5255737304688,692.3853759765625,729.55810546875,598.4801025390625
1767330496.0577052,761.2433471679688,761.6859130859375,741.2409057617188,864.353271484375
1767330496.0616114,769.6514892578125,781.3342895507812,733.0098266601562,878.07177734375
1767330496.0655177,690.084228515625,709.9981689453125,717.1671752929688,613.61474609375
1767330496.069424,669.4622192382812,671.4978637695312,716.5476684570312,565.8212890625
1767330496.0733302,746.8168334960938,742.8340454101562,735.9305419921875,807.3551635742188
1767330496.0772364,786.2906494140625,787.7952880859375,742.5685424804688,900.9949340820312
1767330496.0811427,717.9637451171875,722.5661010742188,726.6373901367188,678.7554321289062
1767330496.085049,663.620849609375,657.9564208984375,711.1487426757812,538.1187744140625
1767330496.0889552,722.7431030273438,714.6890258789062,720.087890625,730.8856811523438
1767330496.0928614,792.5746459960938,795.7608642578125,739.913330078125,915.2444458007812
1767330496.0967677,754.6054077148438,771.6871337890625,731.59375,757.880126953125
1767330496.100674,682.8267211914062,692.473876953125,722.2120361328125,529.710693359375
1767330496.1045802,701.3245239257812,692.9164428710938,720.3533935546875,653.61962890625
1767330496.1049218,777.7940673828125,778.8561401367188,731.3281860351562,898.42822265625
1767330496.108828,771.1560668945312,781.0687866210938,739.2052612304688,832.7565307617188
1767330496.1127343,689.6417236328125,684.9508666992188,724.1591796875,588.5674438476562
1767330496.1166406,681.8531494140625,668.22314453125,716.37060546875,594.0548095703125
1767330496.1205468,761.597412109375,757.1720581054688,733.4523315429688,846.386474609375
1767330496.124453,786.2021484375,796.7344360351562,741.948974609375,892.2327880859375
1767330496.1283593,710.8832397460938,711.59130859375,723.3626098632812,653.8851318359375
1767330496.1322656,673.8875732421875,659.0184936523438,713.2728881835938,560.5109252929688
1767330496.1944442,741.4179077148438,731.59375,733.9833984375,779.0331420898438
1767330496.1983504,791.60107421875,803.3723754882812,752.481201171875,917.1030883789062
1767330496.2022567,739.0282592773438,747.7904052734375,744.0731201171875,717.2556762695312
1767330496.206163,667.6036376953125,658.221923828125,716.7246704101562,551.2177124023438
1767330496.2100692,706.9889526367188,705.1303100585938,721.5040283203125,711.3257446289062
1767330496.2139754,787.9722900390625,803.2838745117188,748.9409790039062,916.041015625
1767330496.2178817,756.7295532226562,766.1112060546875,740.5328979492188,811.4264526367188
1767330496.221788,673.7105712890625,667.7806396484375,710.3521728515625,571.3086547851562
1767330496.1732066,688.6681518554688,680.43701171875,710.3521728515625,624.14697265625
1767330496.1771128,772.483642578125,778.7676391601562,741.4179077148438,869.3096313476562
1767330496.181019,783.989501953125,778.5906372070312,747.1708374023438,868.24755859375
1767330496.1849253,704.333740234375,680.0830078125,721.76953125,619.1021118164062
1767330496.1888316,678.4013671875,667.9576416015625,718.3177490234375,571.0431518554688
1767330496.1927378,754.33984375,764.6066284179688,738.7627563476562,811.3379516601562
1767330496.196644,799.8321533203125,802.7528686523438,754.2513427734375,898.7822875976562
1767330496.2005503,730.443115234375,710.7947387695312,733.1868286132812,693.7130126953125
1767330496.2044566,672.7369995117188,656.9828491210938,711.8568115234375,556.9706420898438
1767330496.2083628,738.4971923828125,737.4351196289062,735.1339721679688,745.7547607421875
1767330496.212269,807.2666625976562,802.0447998046875,750.9766235351562,936.8400268554688
1767330496.2161753,757.880126953125,742.0374755859375,732.7443237304688,776.6434936523438
1767330496.2200816,678.1358642578125,664.4173583984375,712.3878173828125,554.2269287109375
1767330496.2239878,706.369384765625,701.3245239257812,721.5040283203125,662.47021484375
1767330496.1916282,791.60107421875,783.7239990234375,746.9938354492188,906.7478637695312
1767330496.1955345,776.5549926757812,768.412353515625,745.84326171875,842.0496826171875
1767330496.1994407,685.3048706054688,682.8267211914062,720.8844604492188,585.7352294921875
1767330496.203347,680.6140747070312,689.0221557617188,722.12353515625,598.1260986328125
1767330496.2072532,771.6871337890625,776.9974975585938,756.198486328125,839.571533203125
1767330496.2111595,787.7952880859375,780.09521484375,751.773193359375,895.6845703125
1767330496.2150657,698.4923095703125,702.9176635742188,721.4154663085938,659.7265625
1767330496.218972,658.4874267578125,672.5599975585938,716.9901733398438,548.9165649414062
1767330496.2228782,735.4879760742188,731.4166870117188,735.3994750976562,774.7848510742188
1767330496.2267845,791.955078125,782.5734252929688,741.948974609375,917.8111572265625
1767330496.3060002,729.0270385742188,732.124755859375,728.1419677734375,720.264892578125
1767330496.3099065,664.7714233398438,679.8175048828125,718.4947509765625,539.3578491210938
1767330496.3138127,706.2808837890625,720.7074584960938,728.6730346679688,697.3417358398438
1767330496.317719,775.2273559570312,782.6619262695312,740.267333984375,909.6685791015625
1767330496.3216252,748.3214111328125,760.8893432617188,736.6386108398438,792.5746459960938
1767330496.3255315,670.7013549804688,692.6509399414062,726.9913940429688,556.0855712890625
1767330496.3294377,680.9680786132812,692.2083740234375,714.4234619140625,645.3884887695312
1767330496.333344,763.987060546875,766.022705078125,731.6822509765625,889.754638671875
1767330496.3372502,774.6078491210938,774.165283203125,756.8180541992188,832.5795288085938
1767330496.3411565,693.801513671875,690.438232421875,731.1511840820312,595.2053833007812
1767330496.3450627,677.516357421875,668.046142578125,716.2821044921875,582.3719482421875
1767330496.348969,753.6318359375,743.8076171875,738.9397583007812,825.5875244140625
1767330496.3528752,787.4412231445312,790.6275024414062,746.4627685546875,907.2788696289062
1767330496.3567815,715.4855346679688,733.4523315429688,729.1155395507812,670.9668579101562
1767330496.3085346,664.0633544921875,665.83349609375,719.9993896484375,540.1544189453125
1767330496.3124409,724.9557495117188,707.7855224609375,730.443115234375,744.5156860351562
1767330496.3163471,787.7952880859375,784.4320068359375,745.0466918945312,917.1030883789062
1767330496.3202534,740.5328979492188,761.2433471679688,737.2581176757812,745.2236938476562
1767330496.3241596,673.2680053710938,683.977294921875,726.1063232421875,524.6658325195312
1767330496.3280659,702.3865966796875,688.2255859375,722.7431030273438,664.5059204101562
1767330496.3319721,774.8733520507812,771.5986328125,734.9569702148438,910.0225830078125
1767330496.3358784,763.81005859375,776.200927734375,740.8869018554688,826.6495971679688
1767330496.3397846,682.11865234375,684.5968627929688,721.76953125,579.9822998046875
1767330496.3436909,679.2864379882812,667.2495727539062,716.37060546875,603.5250244140625
1767330496.3475971,766.6422729492188,757.880126953125,732.5673217773438,855.1486206054688
1767330496.3515034,788.8573608398438,797.4424438476562,739.6478271484375,881.7005615234375
1767330496.3554096,705.3958129882812,713.7154541015625,725.7523193359375,639.6356201171875
1767330496.3593159,666.2760009765625,663.4437866210938,716.1051025390625,562.3695068359375
1767330496.3501682,744.16162109375,740.3558349609375,731.4166870117188,790.5390014648438
1767330496.3540745,798.8585815429688,810.3643798828125,745.2236938476562,916.6605834960938
1767330496.3579807,745.1351928710938,748.8524780273438,738.1431884765625,701.5015869140625
1767330496.361887,679.1979370117188,653.4425659179688,714.5120239257812,546.2613525390625
1767330496.4451165,716.5476684570312,699.9969482421875,720.087890625,721.0614624023438
1767330496.4490228,789.6539306640625,798.416015625,743.3650512695312,912.0582275390625
1767330496.452929,758.05712890625,764.341064453125,732.7443237304688,794.8757934570312
1767330496.4568353,674.5956420898438,664.5944213867188,709.0245971679688,565.2017211914062
1767330496.4607415,691.5888671875,680.7910766601562,712.7418823242188,639.4585571289062
1767330496.4646478,780.09521484375,789.742431640625,741.77197265625,888.427001953125
1767330496.4265764,783.635498046875,793.99072265625,746.4627685546875,868.1590576171875
1767330496.4304826,696.1026611328125,692.9164428710938,718.7603149414062,610.8710327148438
1767330496.4343889,673.0025024414062,670.6128540039062,712.29931640625,575.9110107421875
1767330496.4382951,753.6318359375,760.5353393554688,732.478759765625,823.7288818359375
1767330496.4422014,793.1941528320312,798.9470825195312,751.2421264648438,890.462646484375
1767330496.4461076,714.9545288085938,703.3601684570312,728.8500366210938,671.4093627929688
1767330496.4500139,661.0541381835938,647.86669921875,706.2808837890625,557.9442138671875
1767330496.4539201,727.87646484375,739.1167602539062,730.7971801757812,748.1444091796875
1767330496.4578264,793.5482177734375,806.2930908203125,748.23291015625,921.4398803710938
1767330496.4617326,743.4535522460938,745.7547607421875,732.3902587890625,756.4639892578125
1767330496.4656389,665.5679931640625,670.7013549804688,715.3970336914062,547.0579223632812
1767330496.4695451,700.8820190429688,710.7947387695312,723.3626098632812,669.1082153320312
1767330496.4734514,783.9010009765625,789.1228637695312,738.6742553710938,902.4110107421875
1767330496.4773576,763.1019897460938,757.703125,733.0983276367188,826.2955322265625
1767330496.436339,679.906005859375,665.5679931640625,714.2464599609375,576.353515625
1767330496.4402452,683.977294921875,680.9680786132812,717.6982421875,603.0824584960938
1767330496.4441514,767.6158447265625,778.7676391601562,747.4363403320312,844.8818969726562
1767330496.4480577,781.0687866210938,777.6170654296875,742.7455444335938,880.5499877929688
1767330496.451964,696.4566650390625,693.978515625,717.521240234375,641.759765625
1767330496.4558702,666.010498046875,677.7818603515625,719.1143188476562,555.9970703125
1767330496.4597764,748.409912109375,749.2064819335938,737.3466186523438,797.7965087890625
1767330496.4636827,795.4067993164062,786.9102172851562,746.020263671875,924.8916625976562
1767330496.467589,728.6730346679688,722.5661010742188,731.94775390625,711.2372436523438
1767330496.4714952,666.6300659179688,670.3472900390625,716.9901733398438,539.9774169921875
1767330496.4754014,716.5476684570312,714.6890258789062,726.6373901367188,717.7867431640625
1767330496.4793077,792.3975830078125,778.7676391601562,747.7904052734375,925.51123046875
1767330496.5951755,758.7651977539062,754.8709106445312,741.948974609375,793.5482177734375
1767330496.5990818,677.1622924804688,686.8980102539062,715.4855346679688,558.8292846679688
1767330496.602988,699.8199462890625,701.5015869140625,728.3189697265625,631.58154296875
1767330496.6068943,780.8032836914062,765.845703125,747.52490234375,895.0650024414062
1767330496.6108005,773.2802124023438,766.6422729492188,738.6742553710938,869.3096313476562
1767330496.6147068,691.1463012695312,699.4658813476562,721.4154663085938,602.5514526367188
1767330496.5739565,673.0025024414062,679.552001953125,716.193603515625,584.8501586914062
1767330496.5778627,755.1364135742188,745.9317626953125,733.5408935546875,832.4024658203125
1767330496.581769,791.0700073242188,778.6791381835938,747.1708374023438,903.1190795898438
1767330496.5856752,721.592529296875,723.628173828125,731.6822509765625,664.5944213867188
1767330496.5895815,675.65771484375,676.7197875976562,719.0258178710938,545.5533447265625
1767330496.5934877,737.7891845703125,731.770751953125,724.9557495117188,759.561767578125
1767330496.597394,799.566650390625,799.3895874023438,734.7799682617188,916.4835205078125
1767330496.6013002,750.6226196289062,757.4375610351562,730.3546142578125,736.6386108398438
1767330496.6052065,685.2163696289062,682.7382202148438,724.7787475585938,530.3302001953125
1767330496.6091127,719.4683227539062,696.01416015625,723.5396728515625,683.977294921875
1767330496.613019,790.3619384765625,776.5549926757812,733.7178955078125,919.4927368164062
1767330496.6169252,762.0399169921875,775.669921875,741.0639038085938,806.6471557617188
1767330496.5690506,679.72900390625,683.80029296875,721.1499633789062,562.5465698242188
1767330496.5729568,686.18994140625,672.9140014648438,716.4591064453125,605.649169921875
1767330496.576863,768.2353515625,761.6859130859375,731.2396850585938,855.5911865234375
1767330496.5807693,782.6619262695312,795.5838623046875,734.7799682617188,868.070556640625
1767330496.5846756,701.590087890625,710.9717407226562,722.4775390625,620.7837524414062
1767330496.5885818,670.2587890625,662.0277099609375,713.1843872070312,560.5994262695312
1767330496.592488,742.302978515625,736.2845458984375,728.6730346679688,795.0527954101562
1767330496.5963943,789.91943359375,803.3723754882812,746.9053344726562,905.86279296875
1767330496.6003006,730.7086791992188,750.2685546875,741.594970703125,684.331298828125
1767330496.6042068,663.2667846679688,657.7794189453125,715.66259765625,542.0130615234375
1767330496.608113,708.405029296875,696.9877319335938,716.4591064453125,733.2753295898438
1767330496.6120193,782.5734252929688,787.2642211914062,739.2937622070312,914.0938720703125
1767330496.6159256,748.23291015625,749.8260498046875,731.3281860351562,778.41357421875
1767330496.6198318,668.400146484375,663.3552856445312,709.90966796875,558.4752197265625
1767330496.7045496,689.9957275390625,686.18994140625,718.40625,646.4505615234375
1767330496.7084558,776.7319946289062,783.2814331054688,744.9581909179688,885.7718505859375
1767330496.712362,773.63427734375,780.7147827148438,741.2409057617188,844.8818969726562
1767330496.7162683,689.1106567382812,681.7646484375,716.4591064453125,600.3387451171875
1767330496.7201746,677.693359375,667.692138671875,715.5740966796875,590.426025390625
1767330496.7240808,761.2433471679688,763.4559936523438,736.6386108398438,833.1990356445312
1767330496.727987,787.8837890625,794.5217895507812,737.7891845703125,911.9697265625
1767330496.7318933,706.1923828125,704.4222412109375,713.5384521484375,680.260009765625
1767330496.696309,671.58642578125,667.1610717773438,721.4154663085938,528.9141235351562
1767330496.7002153,746.9053344726562,748.5869750976562,748.409912109375,733.806396484375
1767330496.7041216,801.8677978515625,802.4873046875,754.5169067382812,925.51123046875
1767330496.7080278,744.8696899414062,732.3902587890625,732.3017578125,746.4627685546875
1767330496.711934,668.3116455078125,653.8851318359375,708.5820922851562,543.606201171875
1767330496.7158403,711.9453125,711.3257446289062,726.1063232421875,685.3048706054688
1767330496.7197466,798.3275146484375,793.1941528320312,751.6846923828125,915.2444458007812
1767330496.7236528,766.8192749023438,754.162841796875,737.3466186523438,815.5863037109375
1767330496.727559,673.3565063476562,667.4265747070312,710.1751708984375,565.0247192382812
1767330496.7314653,682.9152221679688,682.9152221679688,718.9373168945312,616.0928955078125
1767330496.7353716,777.1744995117188,778.9446411132812,751.2421264648438,862.317626953125
1767330496.7392778,783.989501953125,774.8733520507812,742.5685424804688,880.6384887695312
1767330496.743184,696.9877319335938,689.3761596679688,714.0694580078125,643.7069091796875
1767330496.7470903,670.435791015625,677.9588623046875,714.4234619140625,572.459228515625
1767330496.7137852,747.6134033203125,757.3490600585938,739.2937622070312,817.6219482421875
1767330496.7176914,791.0700073242188,790.2734375,748.23291015625,928.8744506835938
1767330496.7215977,719.2913208007812,713.98095703125,727.3453979492188,706.015380859375
1767330496.725504,660.1690673828125,665.9219970703125,712.2108154296875,547.0579223632812
1767330496.7294102,720.6189575195312,719.910888671875,725.0442504882812,732.478759765625
1767330496.7333164,793.9022216796875,782.3963623046875,741.948974609375,929.6710205078125
1767330496.7372227,752.3927001953125,749.737548828125,729.735107421875,778.5906372070312
1767330496.741129,670.081787109375,686.6325073242188,708.051025390625,552.102783203125
1767330496.7450352,701.76708984375,719.4683227539062,726.4603271484375,641.582763671875
1767330496.7489414,788.414794921875,777.528564453125,746.7283325195312,894.4454345703125
1767330496.8165917,775.9354248046875,761.8629150390625,736.373046875,856.4761962890625
1767330496.820498,693.2704467773438,697.0762329101562,722.4775390625,592.6387329101562
1767330496.8244042,685.4818725585938,682.7382202148438,721.5040283203125,593.4352416992188
1767330496.8283105,764.5181274414062,750.6226196289062,735.3109741210938,848.3336181640625
1767330496.8322167,792.2205810546875,783.2814331054688,739.3822631835938,900.4638671875
1767330496.836123,717.1671752929688,721.5040283203125,720.5304565429688,652.468994140625
1767330496.8400292,668.6657104492188,671.763427734375,708.8475952148438,548.6510620117188
1767330496.8439355,733.806396484375,719.556884765625,723.982177734375,776.200927734375
1767330496.8478417,791.0700073242188,781.4227905273438,745.4006958007812,922.4134521484375
1767330496.851748,732.6558227539062,747.4363403320312,737.6121826171875,730.0006103515625
1767330496.8039055,669.727783203125,684.9508666992188,728.1419677734375,528.6486206054688
1767330496.8078117,711.1487426757812,704.6878051757812,734.6914672851562,691.2348022460938
1767330496.811718,779.3871459960938,773.3687133789062,744.16162109375,922.5020141601562
1767330496.8156242,751.0651245117188,762.0399169921875,737.3466186523438,800.274658203125
1767330496.8195305,667.4265747070312,679.3749389648438,714.2464599609375,556.8821411132812
1767330496.8234367,677.6048583984375,678.04736328125,718.4947509765625,619.2791137695312
1767330496.827343,763.1904907226562,766.7307739257812,739.3822631835938,874.2659912109375
1767330496.8312492,768.7664184570312,784.2550048828125,743.4535522460938,863.1141967773438
1767330496.8351555,686.5440063476562,703.625732421875,728.053466796875,613.3491821289062
1767330496.8390617,662.7357788085938,668.5772094726562,723.7166748046875,572.9017944335938
1767330496.842968,738.3201904296875,737.6121826171875,736.196044921875,807.7977294921875
1767330496.8468742,781.77685546875,795.5838623046875,742.47998046875,905.685791015625
1767330496.8507805,725.7523193359375,737.70068359375,737.0811157226562,676.1002197265625
1767330496.8546867,673.3565063476562,654.9472045898438,718.6718139648438,540.419921875
1767330496.8547564,722.8316040039062,702.47509765625,720.7959594726562,746.2857666015625
1767330496.8586626,792.132080078125,794.0792236328125,742.0374755859375,920.2008056640625
1767330496.8625689,753.6318359375,762.7479858398438,733.9833984375,768.5009155273438
1767330496.866475,674.5956420898438,676.1002197265625,716.7246704101562,554.2269287109375
1767330496.8703814,705.661376953125,701.8555908203125,723.1856079101562,661.0541381835938
1767330496.8742876,790.3619384765625,795.849365234375,740.7984008789062,890.9937133789062
1767330496.8781939,777.882568359375,784.9630737304688,742.0374755859375,829.1277465820312
1767330496.8821,696.5452270507812,683.4462280273438,721.5040283203125,591.6651611328125
1767330496.923768,690.1727294921875,674.5956420898438,719.8223876953125,602.5514526367188
1767330496.9276743,773.0147094726562,772.5722045898438,741.6834716796875,850.1922607421875
1767330496.9315805,802.4873046875,802.0447998046875,757.9686279296875,885.2407836914062
1767330496.9354868,725.2212524414062,709.8211669921875,741.77197265625,639.6356201171875
1767330496.939393,675.65771484375,665.7449951171875,712.2108154296875,565.9097900390625
1767330496.9432993,739.2052612304688,749.4719848632812,729.8236083984375,786.2021484375
1767330496.9472055,793.2826538085938,804.6115112304688,752.2156982421875,916.218017578125
1767330496.9511118,730.7971801757812,732.478759765625,727.87646484375,723.3626098632812
1767330496.955018,662.8242797851562,663.0897827148438,707.3429565429688,539.888916015625
1767330496.9589243,710.9717407226562,720.3533935546875,723.1856079101562,692.8279418945312
1767330496.9290469,792.0435791015625,803.2838745117188,742.8340454101562,912.0582275390625
1767330496.9329531,755.4019165039062,755.4904174804688,736.9926147460938,800.3631591796875
1767330496.9368594,667.692138671875,667.0725708007812,721.4154663085938,558.6522827148438
1767330496.9407656,681.587646484375,695.3945922851562,719.2913208007812,623.79296875
1767330496.9446719,771.0675659179688,788.7688598632812,750.9766235351562,861.2555541992188
1767330496.9485781,775.846923828125,770.093994140625,752.2156982421875,854.5291137695312
1767330496.9524844,682.8267211914062,676.8967895507812,712.9188842773438,617.2434692382812
1767330496.9563906,658.5759887695312,672.0289306640625,710.7062377929688,566.352294921875
1767330496.9602969,740.1788330078125,752.7467651367188,735.7535400390625,813.9931640625
1767330496.9642031,779.8297119140625,779.8297119140625,748.055908203125,914.00537109375
1767330496.9681094,707.6085205078125,706.4578857421875,729.0270385742188,679.72900390625
1767330496.9720156,659.549560546875,668.1346435546875,717.875244140625,534.2244873046875
1767330496.9518833,728.1419677734375,730.9741821289062,734.5144653320312,738.8512573242188
1767330496.9557896,788.1492919921875,785.84814453125,740.7098999023438,920.3778076171875
1767330496.9596958,737.3466186523438,741.8604736328125,727.5224609375,753.6318359375
1767330496.963602,666.364501953125,675.3921508789062,712.9188842773438,544.13720703125
1767330496.9675083,704.6878051757812,711.6798095703125,735.3994750976562,651.2299194335938
1767330496.9714146,789.2998657226562,771.95263671875,751.6846923828125,895.861572265625
1767330496.9753208,770.093994140625,751.1536254882812,731.2396850585938,843.2002563476562
1767330496.979227,691.94287109375,688.2255859375,716.9901733398438,583.3455200195312
1767330496.9831333,691.5888671875,682.5612182617188,720.6189575195312,602.9939575195312
1767330496.9870396,767.88134765625,750.445556640625,734.0718994140625,857.4497680664062
1767330497.0455673,789.4768676757812,777.4400024414062,739.4707641601562,889.6661376953125
1767330497.0494735,709.6441650390625,710.263671875,723.80517578125,639.901123046875
1767330497.0533798,671.1438598632812,669.1967163085938,716.2821044921875,555.9085693359375
1767330497.057286,744.5156860351562,730.26611328125,730.7971801757812,790.096435546875
1767330497.0611923,794.6102905273438,786.7332153320312,742.6570434570312,920.289306640625
1767330497.0650985,733.5408935546875,736.5501098632812,730.1776123046875,715.1315307617188
1767330497.0690048,671.3208618164062,675.0381469726562,710.9717407226562,556.7051391601562
1767330497.072911,719.9993896484375,713.803955078125,713.2728881835938,739.736328125
1767330497.0768173,793.813720703125,793.5482177734375,739.913330078125,917.8111572265625
1767330497.0807235,764.4295654296875,773.63427734375,756.4639892578125,757.9686279296875
1767330497.0846298,683.8887939453125,678.1358642578125,726.19482421875,553.1648559570312
1767330497.088536,694.2440185546875,671.2323608398438,710.086669921875,639.2815551757812
1767330497.0924423,774.6963500976562,758.8536987304688,731.4166870117188,876.5671997070312
1767330497.0963485,776.3779296875,788.23779296875,738.5857543945312,848.5991821289062
1767330497.0486064,695.3945922851562,707.7855224609375,720.9729614257812,596.4444580078125
1767330497.0525126,678.6669311523438,664.6829223632812,714.5120239257812,574.140869140625
1767330497.056419,757.0835571289062,749.560546875,739.2052612304688,822.8438110351562
1767330497.0603251,793.1056518554688,805.8505859375,750.2685546875,908.075439453125
1767330497.0642314,726.7258911132812,734.160400390625,743.984619140625,670.435791015625
1767330497.0681376,674.153076171875,657.1598510742188,729.55810546875,547.2349243164062
1767330497.072044,732.124755859375,710.1751708984375,729.0270385742188,765.0491333007812
1767330497.0759501,802.2218017578125,798.9470825195312,747.3478393554688,929.6710205078125
1767330497.0798564,756.7295532226562,759.3847045898438,742.8340454101562,765.3146362304688
1767330497.0837626,677.693359375,668.1346435546875,722.12353515625,559.8028564453125
1767330497.087669,707.6085205078125,697.0762329101562,721.8580322265625,677.0737915039062
1767330497.0915751,793.1941528320312,786.1136474609375,742.6570434570312,904.358154296875
1767330497.0954814,779.0331420898438,771.3330688476562,741.6834716796875,830.3668212890625
1767330497.0993876,688.2255859375,677.3392944335938,721.0614624023438,588.036376953125
1767330497.125008,683.1807250976562,676.36572265625,717.875244140625,606.8882446289062
1767330497.1289144,767.3502807617188,775.5814208984375,730.7971801757812,854.9716186523438
1767330497.1328206,789.3883666992188,808.5942993164062,748.5869750976562,870.6372680664062
1767330497.1367269,707.4314575195312,711.3257446289062,731.0626831054688,628.21826171875
1767330497.2076085,663.0012817382812,663.3552856445312,705.0418090820312,560.9534301757812
1767330497.2115147,734.2489013671875,745.666259765625,727.7879638671875,779.918212890625
1767330497.215421,785.5826416015625,797.3539428710938,742.7455444335938,905.3317260742188
1767330497.2193272,717.2556762695312,720.44189453125,723.2741088867188,704.4222412109375
1767330497.2232335,650.6104125976562,653.7081298828125,711.0602416992188,534.7555541992188
1767330497.2271397,696.7222290039062,715.3085327148438,722.8316040039062,695.837158203125
1767330497.1989937,766.9077758789062,788.5033569335938,739.913330078125,898.6937866210938
1767330497.2029,737.4351196289062,743.3650512695312,732.8328247070312,781.8653564453125
1767330497.2068062,655.0357055664062,665.9219970703125,709.5556640625,544.4027099609375
1767330497.2107124,671.6749267578125,694.7750854492188,712.0338134765625,618.3055419921875
1767330497.2146187,769.8284912109375,791.8665771484375,746.197265625,859.1314086914062
1767330497.218525,770.1824951171875,770.8905639648438,744.9581909179688,837.6243896484375
1767330497.2224312,678.224365234375,671.4093627929688,709.8211669921875,605.7376708984375
1767330497.2263374,664.9484252929688,670.3472900390625,712.5648803710938,575.3799438476562
1767330497.2302437,752.3927001953125,754.6939086914062,737.0811157226562,822.9323120117188
1767330497.23415,784.6090698242188,780.6262817382812,741.6834716796875,906.039794921875
1767330497.2380562,707.8740234375,710.263671875,724.2476806640625,670.081787109375
1767330497.2419624,662.5587768554688,670.3472900390625,713.0958862304688,540.5969848632812
1767330497.193655,732.5673217773438,735.4879760742188,733.0098266601562,755.4019165039062
1767330497.1975613,794.5217895507812,784.16650390625,744.6041870117188,923.7410888671875
1767330497.2014675,748.055908203125,729.4695434570312,733.4523315429688,744.4271240234375
1767330497.2053738,684.5968627929688,671.8519287109375,720.3533935546875,549.6246337890625
1767330497.20928,723.1856079101562,719.73388671875,736.2845458984375,670.6128540039062
1767330497.2131863,800.7172241210938,776.9974975585938,749.4719848632812,901.614501953125
1767330497.2170925,776.5549926757812,752.30419921875,730.1776123046875,836.9163208007812
1767330497.2209988,689.9957275390625,690.6152954101562,713.626953125,575.0259399414062
1767330497.224905,694.7750854492188,700.439453125,719.73388671875,607.684814453125
1767330497.2288113,781.3342895507812,767.1732788085938,740.09033203125,872.2303466796875
1767330497.2327175,794.5217895507812,771.5986328125,742.8340454101562,884.0902099609375
1767330497.2366238,710.7062377929688,705.2188110351562,732.124755859375,626.8021850585938
1767330497.24053,680.3485107421875,682.0301513671875,722.12353515625,559.8028564453125
1767330497.2444363,754.162841796875,739.8248291015625,727.4338989257812,797.0884399414062
1767330497.3274477,799.4780883789062,784.6975708007812,742.5685424804688,913.0317993164062
1767330497.331354,728.4959716796875,736.4615478515625,729.735107421875,703.4486694335938
1767330497.3352602,670.1702880859375,683.4462280273438,726.7258911132812,526.6129760742188
1767330497.3391664,727.4338989257812,720.087890625,740.7098999023438,711.2372436523438
1767330497.3430727,789.2113647460938,783.635498046875,739.0282592773438,927.3698120117188
1767330497.346979,744.2501220703125,756.198486328125,732.2132568359375,773.4572143554688
1767330497.298274,666.5415649414062,679.3749389648438,723.4511108398438,546.6154174804688
1767330497.3021803,688.9336547851562,684.4197998046875,722.3890380859375,641.1401977539062
1767330497.3060865,772.3951416015625,763.7215576171875,737.3466186523438,881.4349975585938
1767330497.3099928,769.6514892578125,776.02392578125,738.5857543945312,839.3059692382812
1767330497.313899,689.0221557617188,696.2796630859375,718.3177490234375,586.5317993164062
1767330497.3178053,674.5956420898438,664.5059204101562,715.1315307617188,577.68115234375
1767330497.3217115,755.1364135742188,746.1087646484375,744.16162109375,828.6852416992188
1767330497.3256178,781.4227905273438,796.9114379882812,744.2501220703125,888.5155639648438
1767330497.329524,707.4314575195312,733.8948974609375,730.1776123046875,639.8126220703125
1767330497.3334303,661.0541381835938,660.9656372070312,722.12353515625,531.4807739257812
1767330497.3373365,723.7166748046875,713.7154541015625,721.76953125,762.305419921875
1767330497.3412428,790.2734375,797.7965087890625,739.1167602539062,915.864013671875
1767330497.345149,741.77197265625,749.2064819335938,731.94775390625,735.7535400390625
1767330497.3490553,668.046142578125,656.2747802734375,711.3257446289062,544.2257080078125
1767330497.3088174,702.0325927734375,695.4830932617188,723.2741088867188,682.7382202148438
1767330497.3127236,782.5734252929688,792.30908203125,742.7455444335938,903.3845825195312
1767330497.31663,766.9077758789062,776.200927734375,736.7271118164062,811.4264526367188
1767330497.3205361,682.3841552734375,678.1358642578125,719.73388671875,573.6983642578125
1767330497.3244424,680.9680786132812,678.224365234375,720.264892578125,612.464111328125
1767330497.3283486,767.4387817382812,778.0595703125,736.6386108398438,864.17626953125
1767330497.332255,786.2906494140625,807.1781616210938,746.8168334960938,865.7694091796875
1767330497.3361611,703.8912353515625,701.944091796875,730.26611328125,617.5975341796875
1767330497.3400674,667.1610717773438,654.2391357421875,710.1751708984375,573.0787963867188
1767330497.3439736,739.736328125,752.9237670898438,729.4695434570312,804.0804443359375
1767330497.34788,785.84814453125,808.240234375,747.0823364257812,916.39501953125
1767330497.3517861,721.0614624023438,717.6982421875,726.4603271484375,703.979736328125
1767330497.4315534,660.08056640625,653.0885620117188,711.4142456054688,542.7211303710938
1767330497.4354596,716.5476684570312,724.7787475585938,730.9741821289062,721.1499633789062
1767330497.4393659,791.6895751953125,803.3723754882812,748.1444091796875,918.4306640625
1767330497.443272,749.560546875,752.2156982421875,732.5673217773438,780.0067138671875
1767330497.4471784,668.6657104492188,668.046142578125,713.1843872070312,551.3062133789062
1767330497.4510846,695.0405883789062,698.6693725585938,722.300537109375,645.4769897460938
1767330497.4549909,776.2894287109375,789.3883666992188,736.5501098632812,898.9592895507812
1767330497.458897,765.5802001953125,774.34228515625,726.6373901367188,869.92919921875
1767330497.4628034,685.1278686523438,691.0578002929688,716.6361694335938,594.8513793945312
1767330497.4667096,683.2692260742188,686.4554443359375,733.0983276367188,555.7315673828125
1767330497.4185715,768.1468505859375,761.2433471679688,742.0374755859375,834.0841064453125
1767330497.4224777,793.5482177734375,781.77685546875,735.5765380859375,904.18115234375
1767330497.426384,716.8131713867188,708.5820922851562,726.19482421875,656.2747802734375
1767330497.4302902,673.3565063476562,675.2151489257812,720.1763916015625,550.244140625
1767330497.4341965,745.4891967773438,744.8696899414062,734.5144653320312,771.95263671875
1767330497.4381027,801.602294921875,793.3711547851562,744.6926879882812,932.8572387695312
1767330497.442009,740.0018310546875,736.01904296875,729.735107421875,744.16162109375
1767330497.4459152,666.364501953125,668.9312133789062,714.4234619140625,550.244140625
1767330497.4498215,716.7246704101562,721.592529296875,737.877685546875,689.9957275390625
1767330497.4537277,798.239013671875,786.2021484375,759.4732055664062,911.2616577148438
1767330497.457634,761.0663452148438,750.7996215820312,736.01904296875,823.2863159179688
1767330497.4615402,675.5692138671875,687.2520141601562,713.7154541015625,574.5834350585938
1767330497.4654465,690.3497314453125,698.3153076171875,717.521240234375,623.4389038085938
1767330497.4693527,776.1124267578125,772.3951416015625,741.594970703125,878.5143432617188
1767330497.469572,779.6527099609375,781.5113525390625,743.984619140625,874.7085571289062
1767330497.4734783,693.8900146484375,707.0774536132812,717.4326782226562,617.509033203125
1767330497.4773846,666.9840698242188,683.977294921875,715.3085327148438,562.1925048828125
1767330497.4812908,739.8248291015625,743.2765502929688,737.70068359375,806.8241577148438
1767330497.485197,785.4055786132812,782.7504272460938,744.6041870117188,907.9869384765625
1767330497.4891033,717.9637451171875,729.0270385742188,727.0798950195312,685.8359375
1767330497.4930096,661.4081420898438,681.0565795898438,720.5304565429688,526.7899780273438
1767330497.4969158,722.5661010742188,716.1051025390625,732.5673217773438,716.9016723632812
1767330497.5533366,787.706787109375,777.7940673828125,742.2144775390625,924.4490966796875
1767330497.5572429,744.7811889648438,756.37548828125,734.0718994140625,762.6594848632812
1767330497.5611491,670.081787109375,679.1094360351562,717.9637451171875,538.2957763671875
1767330497.5650554,699.7314453125,685.7474365234375,725.3097534179688,654.150634765625
1767330497.5689616,784.8745727539062,769.3859252929688,742.302978515625,894.4454345703125
1767330497.5728679,776.9974975585938,781.8653564453125,743.3650512695312,835.4116821289062
1767330497.5767741,694.9520874023438,704.5993041992188,729.4695434570312,586.6203002929688
1767330497.5806804,686.18994140625,675.4806518554688,721.6810302734375,597.506591796875
1767330497.5845866,771.0675659179688,754.7824096679688,739.1167602539062,847.6256103515625
1767330497.5884929,796.1148681640625,793.1941528320312,747.701904296875,898.6052856445312
1767330497.5923991,723.0971069335938,726.6373901367188,735.3109741210938,646.8046264648438
1767330497.5963054,686.9865112304688,664.4173583984375,728.23046875,550.5097045898438
1767330497.6002116,749.2949829101562,720.3533935546875,730.8856811523438,795.5838623046875
1767330497.6041179,802.9298706054688,797.1769409179688,746.9053344726562,930.113525390625
1767330497.5638695,742.302978515625,743.5421142578125,739.6478271484375,733.5408935546875
1767330497.5677757,669.1967163085938,657.2483520507812,722.8316040039062,555.1119995117188
1767330497.571682,711.768310546875,699.908447265625,732.8328247070312,704.7763061523438
1767330497.5755882,785.4940795898438,794.6102905273438,753.98583984375,915.5985107421875
1767330497.5794945,755.4019165039062,774.5193481445312,749.8260498046875,802.5758666992188
1767330497.5834007,667.1610717773438,670.7013549804688,730.26611328125,561.8385009765625
1767330497.587307,669.55078125,672.8255004882812,734.33740234375,613.7032470703125
1767330497.5912132,750.7996215820312,772.129638671875,756.7295532226562,858.7774047851562
1767330497.5951195,762.3939208984375,797.0884399414062,769.8284912109375,842.0496826171875
1767330497.5990257,677.4277954101562,703.5372314453125,752.9237670898438,588.5674438476562
1767330497.602932,644.6804809570312,662.8242797851562,728.053466796875,555.9085693359375
1767330497.6068382,723.5396728515625,753.98583984375,744.6041870117188,789.3883666992188
1767330497.64285,769.2089233398438,806.20458984375,758.7651977539062,881.5235595703125
1767330497.6467562,701.3245239257812,721.592529296875,738.231689453125,661.1426391601562
1767330497.6506624,647.1586303710938,657.7794189453125,726.1063232421875,516.0806884765625
1767330497.6545687,709.0245971679688,728.4959716796875,743.5421142578125,707.4314575195312
1767330497.658475,780.8917846679688,805.5850830078125,760.7123413085938,893.0293579101562
1767330497.6623812,735.2224731445312,745.666259765625,744.6926879882812,745.4006958007812
1767330497.6711996,657.69091796875,665.5679931640625,725.3982543945312,529.53369140625
1767330497.6751058,689.1106567382812,704.5993041992188,732.5673217773438,642.6448364257812
1767330497.679012,773.811279296875,795.67236328125,756.5525512695312,872.5844116210938
1767330497.6829183,762.3939208984375,766.6422729492188,752.9237670898438,810.098876953125
1767330497.6868246,672.0289306640625,669.0197143554688,720.5304565429688,582.7260131835938
1767330497.6907308,665.4794311523438,677.0737915039062,725.2212524414062,587.2398071289062
1767330497.694637,751.4191284179688,773.7227783203125,743.2765502929688,834.6151733398438
1767330497.6985433,772.8377075195312,792.3975830078125,737.9661865234375,884.9752807617188
1767330497.7024496,695.9256591796875,710.086669921875,721.8580322265625,644.5919799804688
1767330497.7063558,660.5231323242188,673.7105712890625,715.0430297851562,548.4739990234375
1767330497.710262,733.62939453125,739.1167602539062,729.6466064453125,771.775634765625
1767330497.7141683,784.9630737304688,777.882568359375,741.8604736328125,922.324951171875
1767330497.7180746,723.5396728515625,720.5304565429688,730.8856811523438,726.1063232421875
1767330497.7219808,659.903564453125,665.83349609375,712.122314453125,544.0487060546875
1767330497.686483,716.193603515625,730.3546142578125,733.7178955078125,697.2532348632812
1767330497.6903892,794.4332275390625,797.2654418945312,756.6410522460938,911.2616577148438
1767330497.6942954,755.1364135742188,747.9674072265625,726.9028930664062,814.170166015625
1767330497.6982017,671.0553588867188,672.5599975585938,708.4935302734375,566.4407958984375
1767330497.702108,688.4910888671875,684.5083618164062,717.9637451171875,627.2446899414062
1767330497.7060142,777.3515014648438,756.8180541992188,731.6822509765625,887.4534301757812
1767330497.7099204,780.7147827148438,768.7664184570312,733.0098266601562,872.7614135742188
1767330497.7138267,693.4474487304688,698.8463745117188,719.2028198242188,612.6411743164062
1767330497.717733,677.7818603515625,688.048583984375,714.0694580078125,571.3086547851562
1767330497.7216392,761.1548461914062,753.5433349609375,728.4959716796875,821.78173828125
1767330497.7255454,795.4953002929688,785.5826416015625,736.5501098632812,907.1903686523438
1767330497.7294517,721.0614624023438,721.76953125,716.37060546875,673.5335693359375
1767330497.733358,675.7462158203125,680.7910766601562,716.2821044921875,530.7727661132812
1767330497.7372642,738.5857543945312,727.5224609375,737.2581176757812,730.26611328125
1767330497.7552955,796.7344360351562,779.3871459960938,735.5765380859375,928.2548828125
1767330497.7592018,752.3927001953125,749.1179809570312,728.7615356445312,763.4559936523438
1767330497.763108,681.3220825195312,681.0565795898438,715.7510986328125,549.3590698242188
1767330497.7670143,712.3878173828125,696.5452270507812,717.875244140625,675.3921508789062
1767330497.8150434,791.0700073242188,779.2101440429688,739.2937622070312,909.93408203125
1767330497.8189497,771.0675659179688,773.8997802734375,737.7891845703125,829.8358154296875
1767330497.822856,683.0037231445312,689.730224609375,719.556884765625,572.1937255859375
1767330497.8267622,676.8967895507812,674.5071411132812,721.3269653320312,599.4536743164062
1767330497.7989793,760.0042724609375,757.703125,739.4707641601562,858.246337890625
1767330497.8028855,776.8204956054688,791.6895751953125,745.84326171875,878.7798461914062
1767330497.8067918,688.7566528320312,720.7959594726562,723.4511108398438,629.722900390625
1767330497.810698,647.4241333007812,668.6657104492188,706.015380859375,567.4143676757812
1767330497.8146043,717.521240234375,737.9661865234375,731.4166870117188,781.599853515625
1767330497.8185105,771.2445678710938,810.6299438476562,772.2181396484375,864.17626953125
1767330497.8224168,700.262451171875,745.1351928710938,757.9686279296875,668.22314453125
1767330497.826323,622.46533203125,657.69091796875,730.443115234375,507.6725769042969
1767330497.8302293,673.1795043945312,706.1038818359375,743.630615234375,663.4437866210938
1767330497.8341355,749.8260498046875,798.6815795898438,761.5089111328125,870.106201171875
1767330497.8380418,717.4326782226562,773.1917114257812,760.1812744140625,744.338623046875
1767330497.841948,632.7321166992188,674.9496459960938,741.5064697265625,513.779541015625
1767330497.7933784,645.7425537109375,691.3233032226562,740.267333984375,584.9386596679688
1767330497.7972846,730.7086791992188,783.2814331054688,759.8272705078125,831.782958984375
1767330497.8011909,737.7891845703125,799.6551513671875,764.0755615234375,800.45166015625
1767330497.805097,655.832275390625,709.1130981445312,744.9581909179688,544.6682739257812
1767330497.8090034,636.0953369140625,670.9668579101562,733.3638305664062,540.3314208984375
1767330497.8129096,719.4683227539062,765.9342041015625,751.5076904296875,783.9010009765625
1767330497.8168159,760.8008422851562,820.4541015625,762.7479858398438,858.9544067382812
1767330497.820722,686.012939453125,727.3453979492188,742.7455444335938,638.5735473632812
1767330497.8246284,632.0240478515625,655.832275390625,722.300537109375,510.3277893066406
1767330497.8285346,701.8555908203125,725.7523193359375,737.2581176757812,713.3613891601562
1767330497.8324409,771.95263671875,795.7608642578125,754.162841796875,889.3120727539062
1767330497.836347,726.5488891601562,737.70068359375,737.4351196289062,735.3994750976562
1767330497.8402534,657.2483520507812,656.9828491210938,720.1763916015625,536.171630859375
1767330497.8441596,694.4210205078125,691.5888671875,729.8236083984375,664.5944213867188
1767330497.9279733,776.200927734375,797.3539428710938,753.2777709960938,891.3477172851562
1767330497.9318795,767.3502807617188,777.70556640625,758.9421997070312,816.8253784179688
1767330497.9495106,679.72900390625,672.3829345703125,726.2833251953125,591.753662109375
1767330497.9534168,676.188720703125,678.9324340820312,712.29931640625,611.0480346679688
1767330497.957323,774.34228515625,772.6607055664062,740.3558349609375,865.5924072265625
1767330497.9612293,800.6287231445312,787.7952880859375,755.844482421875,888.427001953125
1767330497.9651356,715.1315307617188,697.9613037109375,728.7615356445312,649.9908447265625
1767330497.9690418,683.1807250976562,665.3909301757812,713.0073852539062,585.1156616210938
1767330497.972948,762.6594848632812,749.3834838867188,737.1696166992188,807.5322265625
1767330497.9768543,810.6299438476562,790.096435546875,747.9674072265625,940.2032470703125
1767330497.9285264,746.374267578125,721.592529296875,727.9649658203125,729.6466064453125
1767330497.9324327,683.2692260742188,662.2047119140625,710.7947387695312,555.9085693359375
1767330497.936339,739.8248291015625,726.7258911132812,728.3189697265625,726.9028930664062
1767330497.9402452,817.4448852539062,793.1941528320312,754.6054077148438,931.0870971679688
1767330497.9441514,772.129638671875,741.6834716796875,735.2224731445312,817.0023803710938
1767330497.9480577,687.694580078125,668.5772094726562,706.1923828125,579.539794921875
1767330497.951964,712.2108154296875,699.554443359375,712.2108154296875,654.4161376953125
1767330497.9558702,798.06201171875,779.2986450195312,733.62939453125,907.8984375
1767330497.9597764,793.4596557617188,770.27099609375,732.6558227539062,875.7706298828125
1767330497.9636827,706.015380859375,684.7738647460938,716.9901733398438,617.4204711914062
1767330497.967589,684.7738647460938,675.3921508789062,712.3878173828125,589.718017578125
1767330497.9714952,764.341064453125,749.2064819335938,722.300537109375,841.4301147460938
1767330497.9754014,802.5758666992188,780.44921875,734.33740234375,916.6605834960938
1767330497.9793077,728.4959716796875,713.0073852539062,715.7510986328125,681.8531494140625
1767330497.9716628,679.2864379882812,672.5599975585938,704.8648071289062,549.0935668945312
1767330497.975569,744.7811889648438,724.1591796875,723.4511108398438,750.445556640625
1767330497.9794753,805.0540161132812,777.9710693359375,729.6466064453125,938.1676025390625
1767330497.9833815,752.8352661132812,745.3121948242188,722.3890380859375,766.376708984375
1767330497.9872878,679.72900390625,673.2680053710938,709.90966796875,556.8821411132812
1767330497.991194,715.0430297851562,688.6681518554688,718.8488159179688,694.0670166015625
1767330497.9951003,793.99072265625,772.483642578125,735.2224731445312,921.3513793945312
1767330497.9990065,773.4572143554688,770.093994140625,726.1063232421875,824.348388671875
1767330498.0029128,690.6152954101562,686.5440063476562,708.1395263671875,579.893798828125
1767330498.006819,696.5452270507812,673.8875732421875,708.1395263671875,630.6079711914062
1767330498.0924258,779.3871459960938,756.7295532226562,728.8500366210938,881.0809936523438
1767330498.096332,792.6631469726562,777.2630004882812,734.8684692382812,892.6753540039062
1767330498.1002383,716.9016723632812,707.9625244140625,724.6017456054688,636.0953369140625
1767330498.1041446,693.7130126953125,669.2852172851562,723.0971069335938,565.7327880859375
1767330498.1080508,759.6502685546875,727.1683959960938,726.19482421875,818.8610229492188
1767330498.111957,800.09765625,786.9987182617188,732.9213256835938,931.1755981445312
1767330498.063486,736.5501098632812,732.3902587890625,718.1407470703125,709.732666015625
1767330498.0673923,674.6841430664062,656.4517822265625,700.5280151367188,554.2269287109375
1767330498.0712986,727.3453979492188,713.626953125,714.4234619140625,736.1075439453125
1767330498.0752048,802.13330078125,802.3988037109375,731.5052490234375,927.4583129882812
1767330498.079111,768.5894165039062,766.022705078125,726.1063232421875,785.3170776367188
1767330498.0830173,690.438232421875,666.7185668945312,707.0774536132812,565.7327880859375
1767330498.0869236,712.476318359375,679.9945068359375,713.8924560546875,654.9472045898438
1767330498.0908298,792.6631469726562,774.165283203125,734.6029663085938,896.7466430664062
1767330498.094736,785.7596435546875,788.6803588867188,735.6650390625,847.4485473632812
1767330498.0986423,706.369384765625,692.5624389648438,717.1671752929688,590.9570922851562
1767330498.1025486,692.0313720703125,664.0633544921875,704.9533081054688,602.9054565429688
1767330498.1064548,770.5365600585938,762.12841796875,723.982177734375,850.457763671875
1767330498.110361,803.637939453125,802.4873046875,736.6386108398438,904.9777221679688
1767330498.1142673,726.2833251953125,710.1751708984375,717.6097412109375,674.5956420898438
1767330498.0735373,677.0737915039062,654.7702026367188,703.8912353515625,563.0775756835938
1767330498.0774436,744.6926879882812,729.55810546875,725.5753173828125,774.9618530273438
1767330498.0813498,806.9126586914062,799.4780883789062,745.5777587890625,932.149169921875
1767330498.085256,753.4547729492188,743.7191162109375,731.2396850585938,757.6146240234375
1767330498.0891623,677.7818603515625,665.5679931640625,710.7062377929688,558.7407836914062
1767330498.0930686,716.2821044921875,703.0946655273438,716.193603515625,696.3681640625
1767330498.0969748,799.566650390625,804.8770141601562,739.4707641601562,912.32373046875
1767330498.100881,776.5549926757812,775.4928588867188,736.196044921875,809.1253051757812
1767330498.1047873,688.9336547851562,667.2495727539062,706.9004516601562,587.682373046875
1767330498.1086936,697.69580078125,679.4634399414062,710.263671875,632.5551147460938
1767330498.1125998,784.0780029296875,780.9802856445312,735.7535400390625,871.4337768554688
1767330498.116506,794.2562255859375,789.0343627929688,738.3201904296875,885.8603515625
1767330498.1815886,711.2372436523438,701.1475219726562,720.5304565429688,638.04248046875
1767330498.185495,678.7554321289062,675.4806518554688,714.5120239257812,569.8040771484375
1767330498.1894011,755.5789794921875,758.7651977539062,732.3902587890625,804.345947265625
1767330498.1933074,796.5574340820312,788.23779296875,739.6478271484375,915.9525146484375
1767330498.1972136,725.0442504882812,710.7947387695312,719.556884765625,699.2888793945312
1767330498.20112,667.3380737304688,659.903564453125,709.6441650390625,535.4635620117188
1767330498.2050261,726.9913940429688,726.9028930664062,718.7603149414062,724.6902465820312
1767330498.2089324,795.4067993164062,791.60107421875,729.0270385742188,936.4859619140625
1767330498.2128386,747.4363403320312,750.2685546875,724.336181640625,788.5033569335938
1767330498.216745,679.1094360351562,685.9244384765625,725.4867553710938,528.5601196289062
1767330498.1761882,712.29931640625,703.3601684570312,737.0811157226562,625.5631103515625
1767330498.1800945,787.1757202148438,767.7928466796875,739.1167602539062,901.8800048828125
1767330498.1840007,779.3871459960938,768.1468505859375,734.2489013671875,845.50146484375
1767330498.187907,694.155517578125,691.8543701171875,715.2200317382812,589.0984497070312
1767330498.1918132,688.5796508789062,686.5440063476562,720.264892578125,591.3995971679688
1767330498.1957195,773.4572143554688,758.6766967773438,739.8248291015625,851.6083984375
1767330498.1996257,794.8757934570312,779.918212890625,739.736328125,905.9512939453125
1767330498.203532,718.40625,711.6798095703125,724.0706787109375,663.4437866210938
1767330498.2074382,678.9324340820312,683.0037231445312,721.0614624023438,552.8108520507812
1767330498.2113445,747.4363403320312,740.5328979492188,738.231689453125,765.7572021484375
1767330498.2152507,796.5574340820312,777.4400024414062,738.4971923828125,936.4859619140625
1767330498.219157,738.40869140625,733.4523315429688,723.8936767578125,742.8340454101562
1767330498.1969311,672.29443359375,673.7105712890625,716.9901733398438,544.8452758789062
1767330498.2008374,714.0694580078125,700.8820190429688,725.0442504882812,708.4935302734375
1767330498.2047436,790.5390014648438,773.5457763671875,741.594970703125,929.58251953125
1767330498.2086499,761.0663452148438,760.7123413085938,738.6742553710938,813.9046630859375
1767330498.2125561,678.04736328125,691.94287109375,723.628173828125,566.7063598632812
1767330498.2164624,693.1819458007812,691.2348022460938,731.770751953125,633.2631225585938
1767330498.2203686,776.7319946289062,761.6859130859375,747.701904296875,883.2051391601562
1767330498.2242749,777.0859985351562,773.5457763671875,743.8076171875,872.0533447265625
1767330498.2281811,696.9877319335938,712.3878173828125,731.3281860351562,615.9158935546875
1767330498.2320874,677.3392944335938,673.799072265625,725.8408203125,559.0947875976562
1767330498.300925,750.0030517578125,729.2040405273438,729.912109375,816.9138793945312
1767330498.3048313,787.2642211914062,788.23779296875,745.666259765625,918.4306640625
1767330498.3087375,718.8488159179688,735.3109741210938,734.8684692382812,689.8187255859375
1767330498.3126438,670.7013549804688,668.4886474609375,717.0786743164062,553.1648559570312
1767330498.31655,731.1511840820312,718.6718139648438,732.8328247070312,745.4891967773438
1767330498.3204563,797.6195068359375,796.0263671875,752.127197265625,923.9180908203125
1767330498.3243625,759.561767578125,769.56298828125,738.6742553710938,766.5537719726562
1767330498.3282688,682.2071533203125,677.1622924804688,712.2108154296875,553.1648559570312
1767330498.332175,706.9889526367188,690.5267944335938,716.2821044921875,664.4173583984375
1767330498.3360813,792.2205810546875,780.9802856445312,741.2409057617188,905.86279296875
1767330498.3399875,782.6619262695312,792.6631469726562,742.3914794921875,839.3059692382812
1767330498.3438938,698.3153076171875,703.3601684570312,728.9385375976562,578.4776611328125
1767330498.3478,686.4554443359375,671.763427734375,720.8844604492188,612.3756103515625
1767330498.3517063,765.3146362304688,760.44677734375,736.373046875,864.5303344726562
1767330498.3040967,786.2906494140625,802.4873046875,740.7098999023438,892.2327880859375
1767330498.308003,707.4314575195312,714.8660278320312,719.3798217773438,657.513916015625
1767330498.3119092,665.3024291992188,661.585205078125,712.29931640625,566.0867919921875
1767330498.3158154,731.0626831054688,737.3466186523438,729.6466064453125,781.0687866210938
1767330498.3197217,787.4412231445312,806.9126586914062,745.2236938476562,917.545654296875
1767330498.323628,732.7443237304688,740.8869018554688,729.0270385742188,731.6822509765625
1767330498.3275342,663.7093505859375,659.8150634765625,714.157958984375,550.421142578125
1767330498.3314404,707.3429565429688,711.3257446289062,727.87646484375,702.3865966796875
1767330498.3353467,788.6803588867188,810.452880859375,744.9581909179688,905.9512939453125
1767330498.339253,770.5365600585938,782.3963623046875,745.666259765625,786.9102172851562
1767330498.3431592,679.3749389648438,672.6484985351562,715.839599609375,569.0960083007812
1767330498.3470654,682.7382202148438,678.4013671875,710.6177368164062,630.430908203125
1767330498.3509717,776.1124267578125,777.9710693359375,744.6041870117188,873.646484375
1767330498.354878,782.2193603515625,785.7596435546875,748.1444091796875,872.31884765625
1767330498.3701458,690.6152954101562,689.2876586914062,718.3177490234375,612.9951782226562
1767330498.374052,669.1082153320312,665.3909301757812,713.2728881835938,562.1925048828125
1767330498.3779583,754.8709106445312,765.5802001953125,735.5765380859375,807.4436645507812
1767330498.3818645,793.99072265625,801.0712280273438,740.7098999023438,904.6237182617188
1767330498.428676,721.8580322265625,717.2556762695312,725.2212524414062,679.906005859375
1767330498.4325821,667.9576416015625,662.293212890625,711.6798095703125,541.570556640625
1767330498.4364884,733.0983276367188,736.7271118164062,728.3189697265625,732.8328247070312
1767330498.4403946,804.5230102539062,802.4873046875,752.5697631835938,903.650146484375
1767330498.444301,748.5869750976562,737.0811157226562,728.1419677734375,759.561767578125
1767330498.4482071,666.6300659179688,670.3472900390625,705.7498779296875,548.6510620117188
1767330498.4521134,700.7050170898438,717.6097412109375,724.0706787109375,657.9564208984375
1767330498.4560196,778.1480712890625,788.7688598632812,744.5156860351562,896.8351440429688
1767330498.459926,764.6951293945312,766.9077758789062,737.1696166992188,828.24267578125
1767330498.4638321,682.5612182617188,689.4646606445312,713.5384521484375,575.0259399414062
1767330498.4677384,679.906005859375,697.0762329101562,711.59130859375,588.3018798828125
1767330498.4716446,763.3674926757812,771.0675659179688,734.5144653320312,849.2186889648438
1767330498.4243236,778.5906372070312,782.8389282226562,738.8512573242188,881.7890625
1767330498.4282298,698.0498046875,705.3073120117188,720.087890625,634.0596923828125
1767330498.432136,665.3909301757812,680.0830078125,717.3441772460938,545.3762817382812
1767330498.4360423,739.3822631835938,746.1087646484375,741.77197265625,764.1640625
1767330498.4399486,791.3355102539062,786.7332153320312,740.09033203125,919.1387329101562
1767330498.4438548,731.8592529296875,738.9397583007812,724.4246826171875,722.5661010742188
1767330498.447761,671.58642578125,677.2507934570312,717.9637451171875,535.5521240234375
1767330498.4516673,716.5476684570312,709.4671020507812,724.9557495117188,705.9268798828125
1767330498.4555736,787.52978515625,783.989501953125,734.2489013671875,916.218017578125
1767330498.4594798,759.73876953125,761.4203491210938,730.0006103515625,791.1585083007812
1767330498.463386,678.9324340820312,691.8543701171875,723.0971069335938,554.138427734375
1767330498.4672923,692.2083740234375,691.5888671875,722.12353515625,632.3780517578125
1767330498.4711986,777.4400024414062,765.2261352539062,738.8512573242188,884.355712890625
1767330498.4751048,780.8917846679688,776.9089965820312,744.6041870117188,862.140625
1767330498.4828787,700.3509521484375,706.8119506835938,728.23046875,603.1709594726562
1767330498.486785,688.3140869140625,681.8531494140625,727.2568969726562,567.85693359375
1767330498.4906912,766.19970703125,743.4535522460938,734.160400390625,839.6600341796875
1767330498.4945974,791.1585083007812,786.7332153320312,742.302978515625,917.4570922851562
1767330498.4985037,720.087890625,725.9293212890625,732.7443237304688,668.400146484375
1767330498.50241,669.9932861328125,662.5587768554688,716.9901733398438,542.9866333007812
1767330498.5725815,728.1419677734375,714.5120239257812,730.089111328125,748.1444091796875
1767330498.5764878,792.8401489257812,788.1492919921875,744.9581909179688,916.218017578125
1767330498.580394,741.4179077148438,751.9501953125,736.4615478515625,739.913330078125
1767330498.5843003,663.1782836914062,664.5944213867188,721.0614624023438,536.9682006835938
1767330498.5882065,698.5808715820312,687.87158203125,724.5132446289062,672.29443359375
1767330498.5921128,781.3342895507812,785.0515747070312,748.409912109375,900.4638671875
1767330498.556138,760.44677734375,780.0067138671875,745.0466918945312,820.9851684570312
1767330498.5600443,676.01171875,676.6312866210938,715.0430297851562,589.0099487304688
1767330498.5639505,676.36572265625,663.1782836914062,709.2901000976562,620.252685546875
1767330498.5678568,767.2617797851562,772.3951416015625,747.3478393554688,837.889892578125
1767330498.571763,793.5482177734375,803.81494140625,762.482421875,851.96240234375
1767330498.5756693,704.5108032226562,692.5624389648438,722.12353515625,639.6356201171875
1767330498.5795755,667.869140625,645.2999877929688,708.1395263671875,561.572998046875
1767330498.5834818,743.8076171875,733.2753295898438,726.371826171875,786.2906494140625
1767330498.587388,795.2297973632812,808.5942993164062,744.8696899414062,912.0582275390625
1767330498.5912943,733.1868286132812,737.0811157226562,730.443115234375,714.2464599609375
1767330498.5952005,663.974853515625,656.9828491210938,711.1487426757812,547.4119262695312
1767330498.5991068,708.22802734375,708.4935302734375,721.592529296875,712.29931640625
1767330498.603013,783.7239990234375,801.779296875,744.9581909179688,909.0490112304688
1767330498.6069193,753.0122680664062,767.704345703125,745.9317626953125,769.739990234375
1767330498.5660803,674.6841430664062,667.692138671875,717.7867431640625,562.281005859375
1767330498.5699866,692.119873046875,689.55322265625,716.6361694335938,647.4241333007812
1767330498.5738928,775.2273559570312,786.5562133789062,737.877685546875,879.0453491210938
1767330498.577799,774.34228515625,778.5021362304688,734.0718994140625,854.2635498046875
1767330498.5817053,685.3048706054688,685.2163696289062,712.8303833007812,604.49853515625
1767330498.5856116,669.2852172851562,671.58642578125,710.1751708984375,579.8052978515625
1767330498.5895178,755.4904174804688,768.5894165039062,733.3638305664062,821.5162353515625
1767330498.593424,786.2021484375,795.1412963867188,741.6834716796875,896.215576171875
1767330498.5973303,709.2015991210938,703.5372314453125,721.3269653320312,663.4437866210938
1767330498.6012366,665.4794311523438,656.8943481445312,711.768310546875,544.5797729492188
1767330498.6051428,734.160400390625,745.84326171875,733.0098266601562,751.3306274414062
1767330498.609049,799.566650390625,816.7368774414062,755.3134155273438,905.2432250976562
