timestamp,tp9,af7,af8,tp10
1767330487.634477,783.8125,789.8309326171875,736.6386108398438,933.1227416992188
1767330487.6383832,733.9833984375,748.8524780273438,736.6386108398438,737.6121826171875
1767330487.6422894,669.4622192382812,661.939208984375,721.3269653320312,553.5189208984375
1767330487.6454787,713.7154541015625,694.33251953125,728.8500366210938,700.8820190429688
1767330487.649385,786.5562133789062,787.4412231445312,746.7283325195312,911.4386596679688
1767330487.6532912,765.4031372070312,777.7940673828125,741.6834716796875,807.0011596679688
1767330487.6571975,689.1991577148438,683.0922241210938,717.7867431640625,572.5477905273438
1767330487.713915,694.0670166015625,678.9324340820312,716.9016723632812,621.3147583007812
1767330487.7178214,774.2537841796875,771.775634765625,741.77197265625,873.7349853515625
1767330487.7217276,786.7332153320312,802.2218017578125,749.3834838867188,871.2567749023438
1767330487.7256339,708.5820922851562,711.3257446289062,734.0718994140625,606.9767456054688
1767330487.72954,678.04736328125,658.4874267578125,714.6890258789062,571.6627197265625
1767330487.7334464,751.8616943359375,743.984619140625,731.4166870117188,817.6219482421875
1767330487.7373526,792.7516479492188,807.1781616210938,749.6490478515625,908.9605102539062
1767330487.7412589,725.7523193359375,729.2925415039062,731.8592529296875,693.801513671875
1767330487.745165,668.4886474609375,655.832275390625,712.476318359375,546.1728515625
1767330487.7490714,721.2384643554688,722.2120361328125,724.4246826171875,729.6466064453125
1767330487.7193248,792.486083984375,813.4620971679688,750.445556640625,915.68701171875
1767330487.723231,747.6134033203125,759.3847045898438,740.267333984375,768.412353515625
1767330487.7271373,663.2667846679688,661.2311401367188,711.4142456054688,544.8452758789062
1767330487.7310436,687.3405151367188,690.7922973632812,715.9281005859375,647.2471313476562
1767330487.7349498,776.4664306640625,796.203369140625,743.0110473632812,887.0994262695312
1767330487.738856,773.5457763671875,789.1228637695312,750.3570556640625,823.3748168945312
1767330487.7427623,680.8795776367188,679.8175048828125,719.1143188476562,588.21337890625
1767330487.7466686,669.2852172851562,671.6749267578125,712.3878173828125,594.0548095703125
1767330487.7505748,755.2249145507812,774.34228515625,736.9041137695312,836.2967529296875
1767330487.754481,781.1572875976562,793.9022216796875,740.09033203125,894.6224975585938
1767330487.7583873,704.15673828125,706.015380859375,721.4154663085938,651.1414184570312
1767330487.7622936,663.4437866210938,670.7898559570312,714.0694580078125,546.349853515625
1767330487.72923,736.2845458984375,751.4191284179688,734.33740234375,770.9790649414062
1767330487.7331362,793.813720703125,799.0355834960938,747.701904296875,924.8916625976562
1767330487.7370424,735.3109741210938,732.7443237304688,732.6558227539062,729.6466064453125
1767330487.7409487,670.435791015625,671.6749267578125,716.7246704101562,539.534912109375
1767330487.744855,718.4947509765625,731.770751953125,729.2040405273438,690.5267944335938
1767330487.7487612,795.7608642578125,807.5322265625,755.3134155273438,900.3753662109375
1767330487.7526674,758.4111328125,754.33984375,733.2753295898438,805.1425170898438
1767330487.7565737,672.6484985351562,666.6300659179688,702.2095947265625,562.5465698242188
1767330487.76048,689.1991577148438,689.6417236328125,717.6097412109375,613.7032470703125
1767330487.7643862,772.306640625,775.669921875,743.4535522460938,875.1510620117188
1767330487.8413756,772.129638671875,775.5814208984375,737.523681640625,868.5131225585938
1767330487.8452818,689.55322265625,696.1026611328125,717.4326782226562,609.0123901367188
1767330487.849188,669.1967163085938,685.2163696289062,722.7431030273438,561.927001953125
1767330487.8530943,746.374267578125,754.4283447265625,738.8512573242188,813.9931640625
1767330487.8570006,782.6619262695312,788.23779296875,739.2937622070312,909.6685791015625
1767330487.8609068,713.0073852539062,727.699462890625,724.1591796875,677.1622924804688
1767330487.864813,659.4609985351562,689.4646606445312,714.3349609375,540.3314208984375
1767330487.8687193,713.1843872070312,740.7984008789062,725.3982543945312,758.4996337890625
1767330487.8726256,778.8561401367188,787.52978515625,738.40869140625,939.7607421875
1767330487.8765318,734.2489013671875,742.9225463867188,726.9028930664062,761.951416015625
1767330487.880438,668.22314453125,690.9692993164062,725.7523193359375,510.062255859375
1767330487.8843443,705.5728759765625,707.4314575195312,730.443115234375,644.5034790039062
1767330487.836113,781.3342895507812,775.0503540039062,739.4707641601562,910.8191528320312
1767330487.8400192,767.1732788085938,772.5722045898438,741.6834716796875,832.5795288085938
1767330487.8439255,687.3405151367188,698.40380859375,719.9993896484375,581.0443725585938
1767330487.8478317,686.2784423828125,678.04736328125,715.4855346679688,602.1973876953125
1767330487.851738,767.1732788085938,749.3834838867188,735.842041015625,859.3084106445312
1767330487.8556442,786.6447143554688,788.3262939453125,741.3294067382812,898.1627197265625
1767330487.8595505,709.3786010742188,724.8672485351562,724.4246826171875,643.3528442382812
1767330487.8634567,676.7197875976562,673.4450073242188,724.1591796875,540.5969848632812
1767330487.867363,745.5777587890625,723.8936767578125,731.4166870117188,789.8309326171875
1767330487.8712692,793.1941528320312,787.706787109375,742.0374755859375,932.4146728515625
1767330487.8751755,732.0362548828125,748.6754760742188,734.8684692382812,715.0430297851562
1767330487.8790817,665.1254272460938,672.6484985351562,710.1751708984375,539.9774169921875
1767330487.882988,711.3257446289062,706.4578857421875,719.4683227539062,709.4671020507812
1767330487.8868942,787.2642211914062,788.8573608398438,740.6213989257812,917.8111572265625
1767330487.878006,758.7651977539062,772.5722045898438,737.0811157226562,794.6102905273438
1767330487.8819122,677.0737915039062,679.6405029296875,721.2384643554688,565.4672241210938
1767330487.8858185,688.402587890625,676.9852905273438,722.6546020507812,637.9539794921875
1767330487.8897247,769.2974243164062,768.9434204101562,740.1788330078125,886.5684204101562
1767330487.893631,768.5894165039062,789.5654296875,745.2236938476562,863.2911987304688
1767330487.8975372,685.8359375,701.8555908203125,731.1511840820312,597.68359375
1767330487.969783,660.257568359375,662.1162109375,713.803955078125,579.1857299804688
1767330487.9736893,734.9569702148438,748.409912109375,727.1683959960938,829.3047485351562
1767330487.9775956,776.200927734375,802.7528686523438,744.6041870117188,904.004150390625
1767330487.9815018,713.98095703125,724.1591796875,735.7535400390625,665.9219970703125
1767330487.985408,658.9299926757812,654.6817016601562,718.4947509765625,539.888916015625
1767330487.9893143,713.3613891601562,712.2108154296875,726.19482421875,752.5697631835938
1767330487.9595742,788.060791015625,797.7080078125,748.8524780273438,918.9617309570312
1767330487.9634805,745.1351928710938,751.59619140625,737.9661865234375,759.2077026367188
1767330487.9673867,668.8427124023438,668.22314453125,713.4498901367188,549.713134765625
1767330487.971293,705.0418090820312,703.0061645507812,715.3970336914062,668.3116455078125
1767330487.9751992,790.8930053710938,800.6287231445312,734.8684692382812,902.2340087890625
1767330487.9791055,777.9710693359375,783.989501953125,744.5156860351562,818.5955200195312
1767330487.9830117,686.6325073242188,670.435791015625,717.9637451171875,583.3455200195312
1767330487.986918,681.8531494140625,670.081787109375,709.90966796875,615.5618896484375
1767330487.9908242,770.5365600585938,776.5549926757812,740.9754028320312,858.0693359375
1767330487.9947305,789.4768676757812,790.1849365234375,746.197265625,892.0557861328125
1767330487.9986367,706.6349487304688,694.4210205078125,719.73388671875,643.5299072265625
1767330488.002543,667.869140625,656.36328125,707.4314575195312,553.607421875
1767330487.9663684,743.984619140625,748.055908203125,734.6029663085938,781.953857421875
1767330487.9702747,796.4688720703125,798.6815795898438,747.3478393554688,921.3513793945312
1767330487.974181,726.5488891601562,724.6902465820312,726.9913940429688,720.6189575195312
1767330487.9780872,662.7357788085938,663.974853515625,712.2108154296875,541.8360595703125
1767330487.9819934,716.2821044921875,724.1591796875,726.1063232421875,705.1303100585938
1767330487.9858997,791.955078125,798.06201171875,753.0122680664062,903.3845825195312
1767330487.989806,749.0294799804688,747.2593383789062,739.8248291015625,794.5217895507812
1767330487.9937122,660.8771362304688,668.6657104492188,713.98095703125,563.8741455078125
1767330487.9976184,680.0830078125,696.2796630859375,715.9281005859375,626.5366821289062
1767330488.0015247,765.1376342773438,771.3330688476562,735.9305419921875,885.3292846679688
1767330488.005431,769.6514892578125,773.63427734375,739.559326171875,863.4682006835938
1767330488.0093372,687.87158203125,698.8463745117188,719.4683227539062,600.8698120117188
1767330488.0132434,670.8783569335938,687.2520141601562,718.5833129882812,569.9810791015625
1767330488.0171497,750.091552734375,757.3490600585938,737.6121826171875,822.312744140625
1767330488.0877442,785.671142578125,778.5906372070312,741.6834716796875,903.9156494140625
1767330488.0916505,716.8131713867188,713.3613891601562,725.9293212890625,669.6392822265625
1767330488.0955567,672.0289306640625,679.2864379882812,716.5476684570312,539.6234130859375
1767330488.099463,741.948974609375,732.7443237304688,738.0546875,737.7891845703125
1767330488.1033692,798.1505126953125,774.5193481445312,744.338623046875,925.5997314453125
1767330488.1072755,747.87890625,739.559326171875,729.1155395507812,760.9778442382812
1767330488.0717611,679.8175048828125,687.6060791015625,720.1763916015625,546.4383544921875
1767330488.0756674,714.6005249023438,713.626953125,724.2476806640625,683.8887939453125
1767330488.0795736,796.9999389648438,781.4227905273438,739.0282592773438,917.899658203125
1767330488.08348,776.8204956054688,761.5089111328125,737.7891845703125,834.5266723632812
1767330488.0873861,691.8543701171875,689.9072265625,721.946533203125,581.4868774414062
1767330488.0912924,693.7130126953125,686.8095092773438,721.5040283203125,614.6768188476562
1767330488.0951986,775.0503540039062,758.5881958007812,740.7098999023438,873.1154174804688
1767330488.099105,788.8573608398438,781.2457885742188,746.5513305664062,890.8167114257812
1767330488.1030111,706.6349487304688,719.9993896484375,730.5316772460938,638.5735473632812
1767330488.1069174,672.5599975585938,682.8267211914062,730.0006103515625,548.4739990234375
1767330488.1108236,737.0811157226562,733.4523315429688,735.1339721679688,789.8309326171875
1767330488.11473,783.9010009765625,786.2906494140625,739.8248291015625,925.5997314453125
1767330488.1186361,726.4603271484375,737.3466186523438,731.2396850585938,705.3073120117188
1767330488.1225424,664.5944213867188,664.6829223632812,716.6361694335938,540.9509887695312
1767330488.094246,711.6798095703125,705.661376953125,731.6822509765625,718.05224609375
1767330488.0981522,782.2193603515625,793.0171508789062,747.52490234375,918.9617309570312
1767330488.1020584,744.7811889648438,778.1480712890625,737.9661865234375,779.564208984375
1767330488.1059647,663.8863525390625,680.7025756835938,720.6189575195312,551.2177124023438
1767330488.109871,682.47265625,676.1002197265625,722.7431030273438,638.7505493164062
1767330488.1137772,762.9249877929688,766.9077758789062,738.8512573242188,880.7269897460938
1767330488.1176834,761.6859130859375,790.096435546875,740.6213989257812,841.5186767578125
1767330488.1215897,688.3140869140625,712.2108154296875,730.6201782226562,579.0972290039062
1767330488.125496,675.5692138671875,668.6657104492188,715.839599609375,577.68115234375
1767330488.1294022,759.2962036132812,748.3214111328125,731.1511840820312,838.3323974609375
1767330488.1333084,799.3895874023438,803.2838745117188,746.5513305664062,900.8179321289062
1767330488.1372147,729.735107421875,722.4775390625,725.8408203125,670.3472900390625
1767330488.221784,683.0037231445312,661.939208984375,711.1487426757812,554.0499267578125
1767330488.2256904,741.3294067382812,733.1868286132812,727.5224609375,763.5445556640625
1767330488.2295966,800.5402221679688,804.9655151367188,744.6041870117188,927.3698120117188
1767330488.2335029,749.3834838867188,744.6041870117188,730.8856811523438,751.9501953125
1767330488.237409,677.1622924804688,660.4345703125,714.3349609375,555.9085693359375
1767330488.2413154,718.05224609375,705.9268798828125,726.9028930664062,685.1278686523438
1767330488.2452216,798.416015625,802.9298706054688,745.2236938476562,911.2616577148438
1767330488.2491279,770.5365600585938,779.7412109375,732.3902587890625,838.4208984375
1767330488.253034,692.2083740234375,681.4105834960938,727.0798950195312,561.6614990234375
1767330488.2569404,691.765869140625,669.2852172851562,723.4511108398438,598.7456665039062
1767330488.2087164,768.8549194335938,767.7928466796875,734.0718994140625,865.680908203125
1767330488.2126226,785.4940795898438,786.4676513671875,740.3558349609375,875.7706298828125
1767330488.216529,704.0682373046875,685.3933715820312,719.6453857421875,626.359619140625
1767330488.2204351,673.4450073242188,660.257568359375,714.8660278320312,558.03271484375
1767330488.2243414,750.9766235351562,760.3582763671875,731.0626831054688,794.4332275390625
1767330488.2282476,801.956298828125,806.9126586914062,746.2857666015625,915.1559448242188
1767330488.232154,735.3109741210938,725.1327514648438,731.1511840820312,703.4486694335938
1767330488.2360601,666.6300659179688,662.5587768554688,712.7418823242188,534.5785522460938
1767330488.2399664,712.7418823242188,729.3810424804688,723.628173828125,710.3521728515625
1767330488.2438726,790.096435546875,804.9655151367188,750.0030517578125,900.3753662109375
1767330488.247779,748.5869750976562,746.6398315429688,736.01904296875,779.3871459960938
1767330488.2516851,665.1254272460938,666.9840698242188,707.52001953125,561.8385009765625
1767330488.2555914,688.402587890625,697.7843017578125,719.2028198242188,636.8034057617188
1767330488.2594976,772.3951416015625,774.2537841796875,739.4707641601562,888.1614990234375
1767330488.2599044,770.8905639648438,766.9077758789062,734.7799682617188,856.210693359375
1767330488.2638106,690.7037963867188,688.8451538085938,720.7074584960938,604.0560302734375
1767330488.267717,681.8531494140625,687.7830810546875,721.0614624023438,588.3018798828125
1767330488.2716231,767.9698486328125,768.3238525390625,739.3822631835938,848.6876831054688
1767330488.2755294,795.4953002929688,791.60107421875,744.5156860351562,919.1387329101562
1767330488.2794356,714.8660278320312,715.1315307617188,720.9729614257812,672.2059326171875
1767330488.283342,666.8955688476562,674.9496459960938,710.5292358398438,550.8637084960938
1767330488.2872481,741.6834716796875,743.4535522460938,740.0018310546875,758.4111328125
1767330488.3730214,802.5758666992188,783.0159301757812,747.87890625,934.0078125
1767330488.3769276,742.5685424804688,728.1419677734375,723.628173828125,758.05712890625
1767330488.336208,672.3829345703125,675.3921508789062,713.626953125,547.50048828125
1767330488.3401144,714.4234619140625,712.3878173828125,725.2212524414062,694.4210205078125
1767330488.3440206,794.3447265625,782.130859375,745.4006958007812,921.970947265625
1767330488.3479269,769.3859252929688,761.5089111328125,740.7098999023438,820.6311645507812
1767330488.351833,682.9152221679688,689.8187255859375,721.3269653320312,568.387939453125
1767330488.3557394,690.7922973632812,690.7037963867188,722.3890380859375,616.9779663085938
1767330488.3596456,772.9262084960938,771.0675659179688,737.877685546875,872.5844116210938
1767330488.3635519,781.953857421875,791.6895751953125,740.4443359375,870.460205078125
1767330488.367458,700.7050170898438,718.6718139648438,721.5040283203125,610.6940307617188
1767330488.3713644,676.6312866210938,680.5255737304688,723.3626098632812,537.9417724609375
1767330488.3752706,749.560546875,733.9833984375,734.8684692382812,790.5390014648438
1767330488.3791769,786.025146484375,786.8217163085938,737.9661865234375,911.792724609375
1767330488.3311858,725.9293212890625,738.9397583007812,732.478759765625,686.6325073242188
1767330488.335092,671.8519287109375,666.364501953125,721.4154663085938,538.7383422851562
1767330488.3389983,726.1063232421875,704.9533081054688,723.628173828125,726.1063232421875
1767330488.3429046,796.38037109375,785.1400756835938,738.0546875,918.5192260742188
1767330488.3468108,754.4283447265625,764.2525634765625,738.1431884765625,772.129638671875
1767330488.350717,674.153076171875,678.6669311523438,717.521240234375,549.4475708007812
1767330488.3546233,698.226806640625,685.3933715820312,716.6361694335938,655.4782104492188
1767330488.3585296,779.918212890625,769.9169921875,736.6386108398438,898.1627197265625
1767330488.3624358,773.7227783203125,780.0067138671875,742.0374755859375,845.3244018554688
1767330488.366342,692.473876953125,701.3245239257812,735.0454711914062,579.2742309570312
1767330488.3702483,678.6669311523438,667.7806396484375,723.5396728515625,591.4880981445312
1767330488.3741546,758.8536987304688,751.1536254882812,731.6822509765625,860.9015502929688
1767330488.3780608,786.379150390625,800.9827270507812,742.9225463867188,903.4730834960938
1767330488.381967,707.2544555664062,719.8223876953125,725.5753173828125,661.4966430664062
1767330488.3953485,658.5759887695312,654.150634765625,711.8568115234375,556.35107421875
1767330488.3992548,723.1856079101562,720.44189453125,729.3810424804688,772.306640625
1767330488.403161,785.4055786132812,799.74365234375,750.3570556640625,921.4398803710938
1767330488.4070673,728.053466796875,744.5156860351562,737.877685546875,734.7799682617188
1767330488.4784307,653.8851318359375,658.39892578125,713.0958862304688,544.4027099609375
1767330488.482337,697.9613037109375,698.9348754882812,718.7603149414062,685.7474365234375
1767330488.4862432,779.2101440429688,798.06201171875,741.3294067382812,901.7030029296875
1767330488.4901495,760.0042724609375,783.1929321289062,746.1087646484375,788.8573608398438
1767330488.4940557,674.330078125,673.0025024414062,718.40625,556.9706420898438
1767330488.497962,680.0830078125,674.153076171875,709.0245971679688,620.4296875
1767330488.5018682,769.9169921875,781.599853515625,735.9305419921875,862.140625
1767330488.5057745,778.41357421875,792.6631469726562,743.4535522460938,867.0084838867188
1767330488.5096807,694.5095825195312,692.6509399414062,725.2212524414062,617.5975341796875
1767330488.513587,669.3737182617188,663.7093505859375,717.875244140625,559.2717895507812
1767330488.5174932,745.666259765625,761.1548461914062,733.806396484375,796.4688720703125
1767330488.5213995,785.4055786132812,804.1689453125,744.338623046875,901.614501953125
1767330488.5253057,713.98095703125,717.0786743164062,721.3269653320312,680.7910766601562
1767330488.529212,658.9299926757812,659.1954956054688,706.369384765625,531.746337890625
1767330488.4812858,723.0086059570312,735.3109741210938,731.5052490234375,728.6730346679688
1767330488.485192,798.06201171875,810.098876953125,758.7651977539062,908.6065063476562
1767330488.4890983,746.5513305664062,743.0995483398438,737.7891845703125,767.4387817382812
1767330488.4930046,662.3817138671875,662.0277099609375,709.90966796875,561.1304321289062
1767330488.4969108,696.3681640625,707.7855224609375,722.3890380859375,659.1069946289062
1767330488.500817,780.0067138671875,787.6182861328125,744.8696899414062,904.0926513671875
1767330488.5047233,766.5537719726562,760.0927734375,747.0823364257812,852.4049072265625
1767330488.5086296,681.8531494140625,677.3392944335938,722.3890380859375,595.64794921875
1767330488.5125358,676.188720703125,685.5704345703125,716.0166015625,594.0548095703125
1767330488.516442,758.9421997070312,765.4031372070312,744.2501220703125,851.3428344726562
1767330488.5203483,784.16650390625,787.52978515625,746.9053344726562,904.5352172851562
1767330488.5242546,707.2544555664062,711.6798095703125,729.4695434570312,656.6288452148438
1767330488.5281608,662.8242797851562,674.4185791015625,721.4154663085938,551.4832153320312
1767330488.532067,737.1696166992188,749.4719848632812,743.5421142578125,758.4996337890625
1767330488.522516,791.778076171875,787.8837890625,748.9409790039062,917.2800903320312
1767330488.5264223,727.9649658203125,728.8500366210938,724.1591796875,734.6029663085938
1767330488.5303285,661.2311401367188,677.6048583984375,711.59130859375,530.24169921875
1767330488.5342348,706.8119506835938,716.0166015625,721.946533203125,691.3233032226562
1767330488.613133,784.16650390625,781.599853515625,742.8340454101562,915.2444458007812
1767330488.6170392,758.9421997070312,760.5353393554688,739.559326171875,800.9827270507812
1767330488.589205,679.906005859375,688.9336547851562,720.7074584960938,554.9349975585938
1767330488.5931113,689.0221557617188,693.62451171875,723.80517578125,617.2434692382812
1767330488.5970175,772.9262084960938,768.5894165039062,740.0018310546875,877.8062744140625
1767330488.6009238,781.5113525390625,779.564208984375,737.3466186523438,865.3268432617188
1767330488.60483,702.3865966796875,707.4314575195312,719.2913208007812,607.9503173828125
1767330488.6087363,677.1622924804688,683.5347900390625,709.4671020507812,584.2305908203125
1767330488.6126425,754.5169067382812,750.445556640625,740.0018310546875,802.6643676757812
1767330488.6165488,795.3182983398438,782.2193603515625,747.1708374023438,900.8179321289062
1767330488.620455,723.982177734375,727.6109619140625,722.12353515625,694.6865844726562
1767330488.6243613,672.5599975585938,675.3921508789062,719.2913208007812,545.7303466796875
1767330488.6282675,737.877685546875,720.7074584960938,734.6029663085938,753.808837890625
1767330488.6321738,800.5402221679688,789.742431640625,746.1087646484375,932.8572387695312
1767330488.5838358,749.737548828125,755.5789794921875,731.0626831054688,763.987060546875
1767330488.587742,679.8175048828125,676.188720703125,718.7603149414062,553.3418579101562
1767330488.5916483,708.22802734375,692.8279418945312,724.8672485351562,673.0025024414062
1767330488.5955546,784.8745727539062,777.6170654296875,739.0282592773438,905.86279296875
1767330488.5994608,776.6434936523438,779.3871459960938,737.2581176757812,840.0140380859375
1767330488.603367,699.554443359375,698.40380859375,730.6201782226562,578.1236572265625
1767330488.6072733,688.9336547851562,671.2323608398438,727.7879638671875,600.9583129882812
1767330488.6111796,765.9342041015625,756.8180541992188,738.0546875,869.3096313476562
1767330488.6150858,783.989501953125,803.2838745117188,743.2765502929688,894.2684326171875
1767330488.618992,705.2188110351562,716.9901733398438,725.9293212890625,643.8839111328125
1767330488.6228983,664.9484252929688,658.9299926757812,715.4855346679688,555.1119995117188
1767330488.6268046,735.1339721679688,735.1339721679688,734.5144653320312,781.0687866210938
1767330488.6307108,792.30908203125,808.240234375,749.0294799804688,914.8904418945312
1767330488.634617,733.5408935546875,742.7455444335938,731.1511840820312,713.3613891601562
1767330488.680269,665.4794311523438,654.8587036132812,709.90966796875,531.8348388671875
1767330488.6841753,710.086669921875,703.4486694335938,719.2028198242188,688.402587890625
1767330488.6880815,786.5562133789062,799.8321533203125,739.559326171875,901.614501953125
1767330488.6919878,761.4203491210938,781.5113525390625,743.7191162109375,768.8549194335938
1767330488.7199066,683.2692260742188,679.0209350585938,722.4775390625,543.6947021484375
1767330488.7238128,695.1290893554688,683.7117919921875,713.2728881835938,633.2631225585938
1767330488.727719,775.1388549804688,785.671142578125,740.6213989257812,872.31884765625
1767330488.7316253,781.1572875976562,791.1585083007812,748.4984130859375,862.49462890625
1767330488.7355316,694.7750854492188,684.154296875,722.9201049804688,613.4376831054688
1767330488.7394378,667.4265747070312,655.2127075195312,712.0338134765625,573.2557983398438
1767330488.7165985,752.481201171875,753.8973388671875,732.478759765625,819.4805297851562
1767330488.7205048,791.8665771484375,798.5045776367188,744.9581909179688,908.9605102539062
1767330488.724411,716.9016723632812,714.7775268554688,726.5488891601562,684.7738647460938
1767330488.7283173,663.1782836914062,661.76220703125,715.3970336914062,547.4119262695312
1767330488.7322235,724.6902465820312,731.770751953125,730.5316772460938,750.0030517578125
1767330488.7361298,797.531005859375,808.6828002929688,756.2869873046875,919.6697998046875
1767330488.740036,747.701904296875,745.9317626953125,742.0374755859375,761.8629150390625
1767330488.7439423,663.974853515625,658.5759887695312,710.1751708984375,563.1660766601562
1767330488.7478485,697.1647338867188,705.7498779296875,723.2741088867188,668.9312133789062
1767330488.7517548,780.272216796875,784.6090698242188,743.0995483398438,903.4730834960938
1767330488.755661,762.3939208984375,754.4283447265625,738.1431884765625,838.6864624023438
1767330488.7595673,675.3036499023438,670.9668579101562,723.0971069335938,579.893798828125
1767330488.7634735,677.4277954101562,687.1635131835938,722.7431030273438,592.7272338867188
1767330488.7673798,763.5445556640625,773.5457763671875,738.5857543945312,852.2279052734375
1767330488.7392206,778.7676391601562,776.4664306640625,741.2409057617188,889.4005737304688
1767330488.7431269,701.5015869140625,702.8291625976562,721.946533203125,639.9896240234375
1767330488.747033,666.5415649414062,682.0301513671875,712.9188842773438,554.3154296875
1767330488.7509394,740.0018310546875,759.0307006835938,740.8869018554688,770.6250610351562
1767330488.7548456,789.1228637695312,789.5654296875,751.3306274414062,908.1639404296875
1767330488.7587519,720.6189575195312,719.556884765625,723.1856079101562,709.90966796875
1767330488.762658,661.4966430664062,669.6392822265625,707.52001953125,518.204833984375
1767330488.7665644,712.29931640625,717.7867431640625,720.087890625,688.402587890625
1767330488.7704706,787.7952880859375,783.1929321289062,740.3558349609375,909.757080078125
1767330488.7743769,756.021484375,756.6410522460938,733.9833984375,784.0780029296875
1767330488.778283,673.3565063476562,688.6681518554688,716.4591064453125,544.7567749023438
1767330488.7821894,694.2440185546875,700.3509521484375,723.0971069335938,631.2274780273438
1767330488.8546228,778.9446411132812,773.0147094726562,742.3914794921875,888.25
1767330488.858529,773.0147094726562,780.09521484375,742.2144775390625,858.8659057617188
1767330488.8624353,691.5003662109375,707.6085205078125,718.229248046875,603.967529296875
1767330488.8663416,679.6405029296875,686.6325073242188,722.2120361328125,566.8833618164062
1767330488.8702478,757.7916259765625,743.4535522460938,743.0110473632812,823.9058837890625
1767330488.874154,792.0435791015625,780.1837158203125,738.0546875,922.6790161132812
1767330488.8338637,718.7603149414062,723.4511108398438,719.6453857421875,677.7818603515625
1767330488.83777,663.5323486328125,668.1346435546875,712.0338134765625,544.8452758789062
1767330488.8416762,728.9385375976562,715.5740966796875,726.8143920898438,757.4375610351562
1767330488.8455825,793.3711547851562,784.5205688476562,741.4179077148438,927.6353759765625
1767330488.8494887,738.40869140625,753.0122680664062,732.2132568359375,746.9053344726562
1767330488.853395,664.328857421875,671.1438598632812,716.37060546875,540.6854858398438
1767330488.8573012,695.5716552734375,683.80029296875,720.7959594726562,671.58642578125
1767330488.8612075,777.9710693359375,768.6779174804688,742.5685424804688,902.322509765625
1767330488.8651137,761.3318481445312,771.4215698242188,743.0110473632812,824.4368896484375
1767330488.86902,680.5255737304688,700.8820190429688,731.1511840820312,561.2189331054688
1767330488.8729262,676.4542236328125,682.5612182617188,726.8143920898438,596.001953125
1767330488.8768325,754.7824096679688,756.37548828125,735.4879760742188,865.9464111328125
1767330488.8286912,774.6078491210938,790.5390014648438,736.6386108398438,875.505126953125
1767330488.8325975,697.872802734375,708.4935302734375,718.1407470703125,621.75732421875
1767330488.8365037,669.0197143554688,653.8851318359375,711.3257446289062,550.244140625
1767330488.84041,742.8340454101562,725.3097534179688,726.19482421875,781.77685546875
1767330488.8443162,792.30908203125,800.8057250976562,739.736328125,901.8800048828125
1767330488.8482225,727.6109619140625,744.16162109375,727.4338989257812,697.1647338867188
1767330488.8521287,664.0633544921875,657.9564208984375,711.9453125,535.9061279296875
1767330488.856035,714.4234619140625,708.051025390625,729.2925415039062,708.5820922851562
1767330488.8599412,786.1136474609375,796.9114379882812,744.338623046875,912.6777954101562
1767330488.8638475,756.6410522460938,770.447998046875,740.7098999023438,770.0054931640625
1767330488.8677537,676.6312866210938,669.90478515625,720.7074584960938,549.0050659179688
1767330488.87166,686.4554443359375,673.1795043945312,712.29931640625,651.2299194335938
1767330488.8755662,770.1824951171875,780.5377807617188,738.8512573242188,886.9224243164062
1767330488.8794725,772.0411376953125,785.5826416015625,743.0110473632812,859.0429077148438
1767330488.9691007,689.3761596679688,682.11865234375,722.7431030273438,612.5526733398438
1767330488.973007,673.1795043945312,663.8863525390625,717.0786743164062,583.5225830078125
1767330488.9769132,751.4191284179688,757.2605590820312,737.3466186523438,827.8001708984375
1767330488.9808195,793.2826538085938,800.9827270507812,758.5881958007812,896.7466430664062
1767330488.9847257,716.9901733398438,706.1923828125,728.5845336914062,675.834716796875
1767330488.988632,656.8058471679688,649.725341796875,703.802734375,559.71435546875
1767330488.9925382,723.0971069335938,732.5673217773438,729.0270385742188,751.4191284179688
1767330488.9964445,783.1044311523438,801.1597290039062,735.7535400390625,937.4595336914062
1767330488.9566548,735.2224731445312,740.7984008789062,734.8684692382812,745.4006958007812
1767330488.960561,665.3024291992188,658.5759887695312,726.9913940429688,528.7371215820312
1767330488.9644673,703.0946655273438,708.051025390625,725.9293212890625,683.80029296875
1767330488.9683735,784.4320068359375,794.167724609375,747.1708374023438,910.1995849609375
1767330488.9722798,759.6502685546875,754.0743408203125,737.9661865234375,827.3576049804688
1767330488.976186,679.2864379882812,667.869140625,719.556884765625,577.68115234375
1767330488.9800923,686.2784423828125,688.9336547851562,725.2212524414062,610.8710327148438
1767330488.9839985,776.7319946289062,781.599853515625,743.0995483398438,866.3004150390625
1767330488.9879048,789.1228637695312,783.635498046875,741.948974609375,883.82470703125
1767330488.991811,709.0245971679688,700.8820190429688,723.0086059570312,628.5723266601562
1767330488.9957173,674.2415771484375,677.9588623046875,714.9545288085938,554.7579956054688
1767330488.9996235,748.1444091796875,757.6146240234375,744.7811889648438,777.0859985351562
1767330489.0035298,796.5574340820312,791.3355102539062,755.2249145507812,903.0305786132812
1767330489.007436,725.3982543945312,716.8131713867188,724.0706787109375,708.7590942382812
1767330488.9868588,668.046142578125,666.1875,713.7154541015625,534.8440551757812
1767330488.990765,721.1499633789062,723.5396728515625,730.089111328125,713.0958862304688
1767330488.9946713,788.23779296875,786.1136474609375,742.47998046875,918.1651611328125
1767330488.9985776,752.481201171875,752.8352661132812,735.5765380859375,782.3963623046875
1767330489.0024838,671.58642578125,683.5347900390625,719.6453857421875,545.0222778320312
1767330489.00639,693.7130126953125,703.625732421875,729.1155395507812,637.0689086914062
1767330489.0102963,774.8733520507812,774.2537841796875,748.4984130859375,893.7374267578125
1767330489.0142026,766.9962768554688,772.0411376953125,745.3121948242188,848.2451171875
1767330489.0181088,680.6140747070312,694.33251953125,720.6189575195312,589.8065185546875
1767330489.022015,669.90478515625,684.154296875,722.300537109375,565.3787231445312
1767330489.078439,755.4904174804688,750.2685546875,747.6134033203125,828.419677734375
1767330489.0823452,781.4227905273438,774.5193481445312,744.7811889648438,915.68701171875
1767330489.0862515,703.0061645507812,719.910888671875,722.7431030273438,664.15185546875
1767330489.0901577,659.1954956054688,676.4542236328125,715.839599609375,547.1464233398438
1767330489.094064,730.3546142578125,726.7258911132812,732.0362548828125,770.447998046875
1767330489.0979702,792.9286499023438,784.5205688476562,746.9053344726562,928.9629516601562
1767330489.1018765,742.8340454101562,745.3121948242188,737.9661865234375,743.1880493164062
1767330489.1057827,679.72900390625,680.5255737304688,721.1499633789062,547.7659912109375
1767330489.109689,717.521240234375,701.0590209960938,724.5132446289062,694.7750854492188
1767330489.1135952,791.1585083007812,770.27099609375,741.2409057617188,916.6605834960938
1767330489.1175015,765.845703125,765.1376342773438,737.7891845703125,817.71044921875
1767330489.1214077,685.3933715820312,693.0049438476562,726.371826171875,559.537353515625
1767330489.125314,693.5360107421875,677.6048583984375,722.6546020507812,608.7468872070312
1767330489.1292202,775.3158569335938,761.5089111328125,734.33740234375,881.4349975585938
1767330489.0888972,786.7332153320312,797.2654418945312,740.09033203125,874.177490234375
1767330489.0928035,701.1475219726562,714.6005249023438,716.2821044921875,617.2434692382812
1767330489.0967097,673.4450073242188,663.0012817382812,709.90966796875,565.998291015625
1767330489.100616,750.9766235351562,737.70068359375,733.62939453125,804.2574462890625
1767330489.1045222,793.813720703125,799.566650390625,745.9317626953125,913.0317993164062
1767330489.1084285,731.1511840820312,732.8328247070312,735.842041015625,701.1475219726562
1767330489.1123347,671.0553588867188,659.549560546875,721.592529296875,551.4832153320312
1767330489.116241,718.4947509765625,713.7154541015625,730.443115234375,734.0718994140625
1767330489.1201472,785.1400756835938,796.5574340820312,748.1444091796875,928.1663818359375
1767330489.1240535,749.3834838867188,775.4043579101562,750.9766235351562,775.5814208984375
1767330489.1279597,672.117431640625,673.0025024414062,725.9293212890625,555.9970703125
1767330489.131866,690.26123046875,681.4990844726562,714.6005249023438,668.5772094726562
1767330489.1507459,772.5722045898438,793.1941528320312,744.4271240234375,902.0570068359375
1767330489.154652,766.8192749023438,789.2113647460938,744.9581909179688,847.89111328125
1767330489.1585584,686.6325073242188,682.5612182617188,718.6718139648438,596.0904541015625
1767330489.1624646,683.8887939453125,670.9668579101562,718.7603149414062,591.3110961914062
1767330489.1663709,768.7664184570312,767.6158447265625,739.2937622070312,838.7749633789062
1767330489.170277,802.310302734375,800.45166015625,746.020263671875,897.9857177734375
1767330489.1982868,724.8672485351562,707.1659545898438,724.6017456054688,660.257568359375
1767330489.202193,674.2415771484375,656.9828491210938,713.3613891601562,544.2257080078125
1767330489.2060993,741.5064697265625,740.7984008789062,727.9649658203125,763.1904907226562
1767330489.2100055,804.7000122070312,815.1437377929688,750.1800537109375,908.1639404296875
1767330489.2139118,745.4006958007812,736.1075439453125,733.3638305664062,723.3626098632812
1767330489.217818,663.1782836914062,649.6368408203125,705.4843139648438,547.677490234375
1767330489.2217243,709.1130981445312,715.4855346679688,726.1063232421875,689.9957275390625
1767330489.2256305,794.6987915039062,800.1861572265625,747.6134033203125,914.0938720703125
1767330489.2295368,761.951416015625,754.7824096679688,735.6650390625,809.744873046875
1767330489.233443,677.2507934570312,666.6300659179688,715.839599609375,562.9005737304688
1767330489.2373493,684.154296875,688.402587890625,716.7246704101562,612.0216064453125
1767330489.2412555,766.022705078125,779.918212890625,737.7891845703125,865.50390625
1767330489.2451618,778.41357421875,776.7319946289062,740.9754028320312,873.9119873046875
1767330489.249068,695.0405883789062,690.438232421875,719.3798217773438,618.4825439453125
1767330489.2011514,662.47021484375,673.0910034179688,711.2372436523438,565.0247192382812
1767330489.2050576,745.1351928710938,766.9077758789062,741.4179077148438,803.1953735351562
1767330489.2089639,786.9102172851562,792.0435791015625,752.30419921875,914.0938720703125
1767330489.2128701,707.0774536132812,700.262451171875,722.3890380859375,710.263671875
1767330489.2167764,649.0172729492188,658.044921875,720.7074584960938,547.2349243164062
1767330489.2206826,708.5820922851562,728.5845336914062,739.559326171875,736.9926147460938
1767330489.2245889,774.34228515625,783.9010009765625,740.267333984375,930.9985961914062
1767330489.2284951,731.770751953125,737.1696166992188,724.2476806640625,771.95263671875
1767330489.2324014,657.69091796875,670.7013549804688,712.2108154296875,542.5441284179688
1767330489.2363076,692.296875,700.6165161132812,726.017822265625,649.725341796875
1767330489.2402139,781.4227905273438,772.0411376953125,744.0731201171875,899.4017944335938
1767330489.2441201,774.9618530273438,761.4203491210938,739.4707641601562,840.7221069335938
1767330489.2480264,687.6060791015625,688.402587890625,716.9901733398438,582.3719482421875
1767330489.2519326,683.7117919921875,693.3589477539062,725.7523193359375,572.459228515625
1767330489.265403,774.34228515625,763.81005859375,747.7904052734375,831.782958984375
1767330489.2693093,791.4240112304688,776.6434936523438,735.5765380859375,898.8707885742188
1767330489.2732155,715.3085327148438,713.0958862304688,717.521240234375,641.2286987304688
1767330489.2771218,681.3220825195312,682.5612182617188,716.2821044921875,538.8268432617188
1767330489.3479652,747.2593383789062,738.6742553710938,732.3017578125,773.1032104492188
1767330489.3518715,797.4424438476562,791.60107421875,737.523681640625,913.7398681640625
1767330489.3557777,741.2409057617188,746.7283325195312,727.1683959960938,710.6177368164062
1767330489.359684,680.3485107421875,683.0037231445312,719.4683227539062,530.5957641601562
1767330489.3635902,723.3626098632812,711.2372436523438,726.371826171875,694.7750854492188
1767330489.3674965,798.5930786132812,784.2550048828125,742.2144775390625,911.2616577148438
1767330489.3393893,770.7135620117188,765.668701171875,738.40869140625,792.5746459960938
1767330489.3432956,683.80029296875,682.295654296875,709.90966796875,575.4684448242188
1767330489.3472018,698.5808715820312,684.6853637695312,720.3533935546875,634.3251953125
1767330489.351108,787.9722900390625,770.9790649414062,754.2513427734375,858.9544067382812
1767330489.3550143,781.77685546875,786.2906494140625,738.7627563476562,874.8855590820312
1767330489.3589206,695.5716552734375,712.2108154296875,720.087890625,621.2262573242188
1767330489.3628268,672.7369995117188,672.117431640625,716.8131713867188,577.0615844726562
1767330489.366733,750.5341186523438,747.2593383789062,733.7178955078125,823.9058837890625
1767330489.3706393,786.9987182617188,803.5494384765625,745.3121948242188,910.2880859375
1767330489.3745456,716.37060546875,734.6029663085938,730.6201782226562,685.9244384765625
1767330489.3784518,660.7886352539062,655.3897094726562,719.9993896484375,550.3326416015625
1767330489.382358,716.9016723632812,710.8832397460938,730.9741821289062,743.0995483398438
1767330489.3464575,782.0423583984375,797.0884399414062,736.9041137695312,923.3870239257812
1767330489.3503637,742.3914794921875,765.5802001953125,734.5144653320312,749.4719848632812
1767330489.35427,670.9668579101562,667.6036376953125,720.8844604492188,535.0210571289062
1767330489.3581762,698.7578735351562,682.8267211914062,715.3085327148438,672.117431640625
1767330489.3620825,785.4940795898438,788.6803588867188,738.7627563476562,903.9156494140625
1767330489.3659887,776.02392578125,787.9722900390625,744.16162109375,835.854248046875
1767330489.369895,686.8095092773438,683.3577270507812,724.336181640625,585.646728515625
1767330489.3738012,680.7025756835938,666.4530029296875,716.37060546875,593.7008056640625
1767330489.3777075,764.4295654296875,766.19970703125,738.0546875,844.4393310546875
1767330489.3816137,786.379150390625,799.566650390625,747.1708374023438,882.7626342773438
1767330489.38552,707.4314575195312,700.8820190429688,724.2476806640625,641.582763671875
1767330489.3894262,673.8875732421875,659.6380615234375,715.5740966796875,551.6602783203125
1767330489.3933325,745.4006958007812,743.0110473632812,730.5316772460938,779.2986450195312
1767330489.3972387,798.416015625,806.9126586914062,750.8881225585938,906.393798828125
1767330489.4677181,745.7547607421875,728.5845336914062,740.8869018554688,709.6441650390625
1767330489.4716244,673.0910034179688,647.6011962890625,709.3786010742188,546.1728515625
1767330489.4755306,711.2372436523438,718.3177490234375,721.0614624023438,697.69580078125
1767330489.4794369,788.23779296875,810.7184448242188,748.5869750976562,911.8812255859375
1767330489.4833431,753.8973388671875,761.7744140625,738.7627563476562,798.7700805664062
1767330489.4872494,665.7449951171875,662.47021484375,715.3970336914062,558.8292846679688
1767330489.482963,679.552001953125,685.2163696289062,721.8580322265625,626.5366821289062
1767330489.4868693,773.1917114257812,781.8653564453125,748.23291015625,883.9132080078125
1767330489.4907756,776.5549926757812,771.8641357421875,746.4627685546875,873.1154174804688
1767330489.4946818,682.5612182617188,684.331298828125,723.7166748046875,612.7296752929688
1767330489.498588,662.47021484375,673.6220703125,719.2913208007812,581.2213745117188
1767330489.5024943,748.9409790039062,766.7307739257812,743.7191162109375,823.9058837890625
1767330489.4543009,786.379150390625,788.8573608398438,754.9594116210938,907.1018676757812
1767330489.4582071,713.8924560546875,702.6521606445312,724.6902465820312,697.4302368164062
1767330489.4621134,664.15185546875,662.0277099609375,714.4234619140625,554.0499267578125
1767330489.4660196,729.3810424804688,732.9213256835938,733.0098266601562,749.2949829101562
1767330489.4699259,795.7608642578125,793.4596557617188,747.52490234375,936.5745239257812
1767330489.4738321,746.374267578125,747.4363403320312,737.70068359375,770.3594970703125
1767330489.4777384,668.3116455078125,684.0657958984375,722.3890380859375,550.067138671875
1767330489.4816446,702.47509765625,711.5028076171875,734.33740234375,669.1967163085938
1767330489.4855509,790.8045043945312,781.6883544921875,753.0122680664062,915.864013671875
1767330489.4894571,774.165283203125,771.5101318359375,743.8076171875,838.8634643554688
1767330489.4933634,684.154296875,690.1727294921875,718.6718139648438,582.0179443359375
1767330489.4972696,685.0393676757812,691.5888671875,722.6546020507812,593.2582397460938
1767330489.5011759,770.6250610351562,757.9686279296875,744.338623046875,846.2979736328125
1767330489.5050821,784.7860717773438,767.0847778320312,739.3822631835938,899.4017944335938
1767330489.5128691,702.12109375,708.9360961914062,722.12353515625,642.9988403320312
1767330489.5167754,664.0633544921875,683.4462280273438,719.0258178710938,549.8016357421875
1767330489.5206816,737.70068359375,742.0374755859375,735.9305419921875,789.2998657226562
1767330489.5245879,789.3883666992188,790.2734375,747.701904296875,921.2628784179688
1767330489.5284941,727.6109619140625,738.231689453125,735.6650390625,709.9981689453125
1767330489.5324004,663.2667846679688,674.5956420898438,714.8660278320312,535.1095581054688
1767330489.5790312,713.4498901367188,709.3786010742188,721.592529296875,713.4498901367188
1767330489.5829375,783.5469970703125,788.6803588867188,743.3650512695312,921.7939453125
1767330489.5868437,742.5685424804688,768.2353515625,735.842041015625,792.3975830078125
1767330489.59075,665.0369262695312,695.3945922851562,721.2384643554688,548.4739990234375
1767330489.5946562,684.9508666992188,689.55322265625,729.55810546875,630.1654052734375
1767330489.5985625,764.6951293945312,761.951416015625,738.6742553710938,898.8707885742188
1767330489.6024687,767.88134765625,782.48486328125,736.4615478515625,859.3969116210938
1767330489.606375,688.2255859375,701.0590209960938,727.699462890625,600.6043090820312
1767330489.6102812,671.1438598632812,663.2667846679688,722.5661010742188,583.7880859375
1767330489.6141875,752.5697631835938,742.9225463867188,736.01904296875,828.8622436523438
1767330489.6180937,788.5033569335938,797.0884399414062,750.2685546875,898.9592895507812
1767330489.622,721.2384643554688,730.3546142578125,732.9213256835938,661.1426391601562
1767330489.5737011,673.3565063476562,662.47021484375,714.8660278320312,542.0130615234375
1767330489.5776074,736.4615478515625,724.4246826171875,736.2845458984375,751.9501953125
1767330489.5815136,796.8229370117188,804.5230102539062,747.701904296875,920.2008056640625
1767330489.58542,750.8881225585938,768.058349609375,737.7891845703125,736.4615478515625
1767330489.5893261,682.7382202148438,669.727783203125,724.1591796875,528.7371215820312
1767330489.5932324,708.7590942382812,686.366943359375,718.40625,680.6140747070312
1767330489.5971386,788.060791015625,786.7332153320312,742.0374755859375,907.8099365234375
1767330489.601045,770.7135620117188,775.9354248046875,742.47998046875,818.41845703125
1767330489.6049511,682.9152221679688,674.330078125,720.5304565429688,573.2557983398438
1767330489.6088574,682.7382202148438,669.55078125,718.229248046875,604.321533203125
1767330489.6127636,768.3238525390625,770.8020629882812,739.736328125,859.1314086914062
1767330489.61667,786.2906494140625,806.20458984375,746.374267578125,883.2051391601562
1767330489.6205761,695.3060913085938,711.59130859375,725.7523193359375,631.8470458984375
1767330489.6244824,659.8150634765625,661.0541381835938,715.5740966796875,549.8016357421875
1767330489.6076229,736.9926147460938,742.5685424804688,727.3453979492188,786.2021484375
1767330489.611529,786.5562133789062,811.6920166015625,744.7811889648438,905.1547241210938
1767330489.6154354,729.735107421875,736.9041137695312,738.5857543945312,700.7050170898438
1767330489.6193416,656.4517822265625,654.2391357421875,709.2901000976562,549.0935668945312
1767330489.6232479,699.6429443359375,716.0166015625,718.9373168945312,713.0073852539062
1767330489.627154,779.7412109375,797.6195068359375,746.2857666015625,913.0317993164062
1767330489.7227566,745.84326171875,746.9938354492188,739.913330078125,785.671142578125
1767330489.7266629,667.51513671875,664.328857421875,715.7510986328125,555.2890014648438
1767330489.7305691,691.765869140625,696.3681640625,720.5304565429688,641.2286987304688
1767330489.7344754,778.41357421875,791.5125732421875,745.1351928710938,888.427001953125
1767330489.7383816,776.1124267578125,777.4400024414062,742.8340454101562,860.3704833984375
1767330489.7422879,693.4474487304688,682.8267211914062,719.2913208007812,606.7112426757812
1767330489.6945786,681.8531494140625,674.0645751953125,717.3441772460938,574.31787109375
1767330489.698485,765.3146362304688,768.058349609375,734.5144653320312,838.1553955078125
1767330489.7023911,791.0700073242188,792.6631469726562,730.7086791992188,925.865234375
1767330489.7062974,724.2476806640625,717.9637451171875,735.0454711914062,648.4862060546875
1767330489.7102036,678.8439331054688,668.3116455078125,725.7523193359375,531.1267700195312
1767330489.71411,736.196044921875,734.0718994140625,728.053466796875,760.44677734375
1767330489.7180161,794.167724609375,789.1228637695312,744.2501220703125,918.07666015625
1767330489.7219224,740.09033203125,730.0006103515625,732.3017578125,741.0639038085938
1767330489.7258286,666.4530029296875,667.1610717773438,714.3349609375,535.3750610351562
1767330489.729735,705.3073120117188,715.2200317382812,722.7431030273438,669.8162841796875
1767330489.7336411,783.7239990234375,782.5734252929688,745.0466918945312,904.9777221679688
1767330489.7375474,757.2605590820312,754.7824096679688,738.6742553710938,809.921875
1767330489.7414536,673.2680053710938,676.01171875,713.0958862304688,561.3074340820312
1767330489.74536,680.8795776367188,698.40380859375,721.8580322265625,593.0812377929688
1767330489.7142377,768.9434204101562,782.2193603515625,746.2857666015625,846.20947265625
1767330489.718144,777.0859985351562,779.3871459960938,735.3994750976562,884.2672119140625
1767330489.7220502,693.62451171875,701.8555908203125,714.3349609375,627.4216918945312
1767330489.7259564,665.2139282226562,671.9404296875,714.6890258789062,552.6338500976562
1767330489.7298627,743.2765502929688,731.6822509765625,732.124755859375,802.0447998046875
1767330489.733769,790.096435546875,784.16650390625,739.3822631835938,918.3421630859375
1767330489.7376752,719.6453857421875,731.8592529296875,721.6810302734375,693.0934448242188
1767330489.7415814,659.6380615234375,674.2415771484375,708.5820922851562,530.7727661132812
1767330489.7454877,715.3085327148438,712.5648803710938,722.5661010742188,723.7166748046875
1767330489.749394,789.5654296875,785.1400756835938,743.7191162109375,925.51123046875
1767330489.7533002,748.3214111328125,758.7651977539062,735.3994750976562,779.564208984375
1767330489.7572064,673.4450073242188,690.26123046875,719.3798217773438,541.2164916992188
1767330489.8420982,702.3865966796875,697.7843017578125,727.2568969726562,635.1217651367188
1767330489.8460045,777.528564453125,763.1019897460938,738.1431884765625,900.7294311523438
1767330489.8499107,774.4307861328125,772.306640625,739.2937622070312,854.8831176757812
1767330489.853817,697.69580078125,701.0590209960938,724.9557495117188,592.28466796875
1767330489.8577232,682.7382202148438,669.4622192382812,712.0338134765625,584.8501586914062
1767330489.8616295,762.0399169921875,743.0110473632812,727.9649658203125,838.1553955078125
1767330489.8655357,794.6987915039062,792.0435791015625,742.5685424804688,898.42822265625
1767330489.869442,719.2028198242188,727.699462890625,725.7523193359375,655.7437744140625
1767330489.8733482,672.8255004882812,664.328857421875,708.7590942382812,551.2177124023438
1767330489.8772545,742.47998046875,726.8143920898438,729.4695434570312,771.4215698242188
1767330489.8293371,795.849365234375,800.274658203125,745.84326171875,921.970947265625
1767330489.8332434,744.8696899414062,757.6146240234375,736.2845458984375,726.19482421875
1767330489.8371496,681.941650390625,662.8242797851562,724.2476806640625,531.1267700195312
1767330489.8410559,714.9545288085938,683.0037231445312,722.5661010742188,696.2796630859375
1767330489.8449621,789.8309326171875,787.7952880859375,737.7891845703125,918.1651611328125
1767330489.8488684,770.1824951171875,783.7239990234375,735.5765380859375,812.6655883789062
1767330489.8527746,687.3405151367188,686.6325073242188,719.1143188476562,576.6190795898438
1767330489.8566809,692.0313720703125,682.8267211914062,721.3269653320312,625.2975463867188
1767330489.8605871,772.3951416015625,770.6250610351562,740.7098999023438,871.5223388671875
1767330489.8644934,784.2550048828125,792.486083984375,747.6134033203125,877.3637084960938
1767330489.8683996,700.8820190429688,699.0233764648438,725.4867553710938,629.89990234375
1767330489.8723059,665.83349609375,656.7173461914062,714.3349609375,565.1132202148438
1767330489.8762121,742.302978515625,745.4006958007812,732.3902587890625,805.2310180664062
1767330489.8801184,791.4240112304688,812.4000244140625,748.9409790039062,907.6329345703125
1767330489.879977,725.3097534179688,730.089111328125,737.877685546875,681.6761474609375
1767330489.8838832,661.4081420898438,644.2379150390625,714.3349609375,548.031494140625
1767330489.8877895,715.66259765625,714.5120239257812,725.1327514648438,734.6914672851562
1767330489.8916957,787.52978515625,804.7000122070312,746.6398315429688,915.4214477539062
1767330489.895602,744.338623046875,749.8260498046875,734.33740234375,770.27099609375
1767330489.8995082,668.8427124023438,661.939208984375,715.1315307617188,547.50048828125
1767330489.9034145,699.8199462890625,695.7486572265625,726.19482421875,647.5126953125
1767330489.9073207,784.16650390625,791.3355102539062,746.7283325195312,889.4005737304688
1767330489.961798,776.200927734375,772.5722045898438,738.4971923828125,839.6600341796875
1767330489.9657042,690.084228515625,677.693359375,719.910888671875,584.7616577148438
1767330489.9696105,675.5692138671875,676.6312866210938,718.1407470703125,579.6282958984375
1767330489.9735167,763.8985595703125,775.846923828125,741.3294067382812,826.8265991210938
1767330489.977423,800.274658203125,794.4332275390625,756.9065551757812,872.0533447265625
1767330489.9813292,717.875244140625,702.47509765625,726.1063232421875,649.8138427734375
1767330489.9852355,666.9840698242188,662.47021484375,706.7234497070312,558.8292846679688
1767330489.9891417,740.1788330078125,741.0639038085938,731.6822509765625,773.3687133789062
1767330489.993048,801.602294921875,797.7965087890625,744.7811889648438,928.6974487304688
1767330489.9969542,740.4443359375,737.877685546875,727.4338989257812,736.4615478515625
1767330489.9641795,664.4173583984375,669.727783203125,713.98095703125,538.6498413085938
1767330489.9680858,710.6177368164062,721.3269653320312,731.2396850585938,689.55322265625
1767330489.971992,787.6182861328125,786.7332153320312,747.1708374023438,917.8111572265625
1767330489.9758983,762.482421875,754.33984375,737.7891845703125,810.8069458007812
1767330489.9798045,681.3220825195312,678.8439331054688,716.9016723632812,567.5029296875
1767330489.9837108,692.119873046875,701.0590209960938,723.3626098632812,617.0664672851562
1767330489.987617,780.8032836914062,776.8204956054688,745.7547607421875,862.8486938476562
1767330489.9915233,780.272216796875,770.6250610351562,734.7799682617188,875.9476318359375
1767330489.9954295,695.5716552734375,701.8555908203125,715.2200317382812,623.1734008789062
1767330489.9993358,677.4277954101562,684.4197998046875,718.229248046875,570.24658203125
1767330489.959105,753.8973388671875,748.1444091796875,736.1075439453125,820.5426635742188
1767330489.9630113,789.3883666992188,785.7596435546875,747.0823364257812,916.1295166015625
1767330489.9669175,720.6189575195312,730.6201782226562,737.4351196289062,685.0393676757812
1767330489.9708238,661.3196411132812,677.516357421875,723.0086059570312,534.5785522460938
1767330489.97473,713.626953125,716.0166015625,732.3017578125,733.3638305664062
1767330489.9786363,780.272216796875,787.3527221679688,745.2236938476562,918.7847290039062
1767330489.9825425,736.196044921875,754.6939086914062,731.5052490234375,760.6238403320312
1767330489.9864488,665.3909301757812,689.6417236328125,718.8488159179688,535.7291259765625
1767330489.990355,702.5636596679688,705.2188110351562,731.6822509765625,645.3884887695312
1767330489.9942613,782.5734252929688,771.5986328125,739.1167602539062,906.6593627929688
1767330489.9981675,766.2882080078125,775.2273559570312,733.9833984375,835.854248046875
1767330490.0020738,686.8095092773438,701.76708984375,719.9993896484375,575.6455078125
1767330490.098777,685.9244384765625,677.4277954101562,718.6718139648438,596.4444580078125
1767330490.1026833,765.9342041015625,750.2685546875,740.1788330078125,848.9531860351562
1767330490.1065896,785.1400756835938,783.1044311523438,749.0294799804688,886.8339233398438
1767330490.1104958,708.22802734375,713.0073852539062,727.0798950195312,638.7505493164062
1767330490.114402,666.010498046875,663.5323486328125,711.6798095703125,551.0407104492188
1767330490.1183083,734.5144653320312,731.4166870117188,728.7615356445312,786.4676513671875
1767330490.1222146,790.5390014648438,794.4332275390625,744.338623046875,919.0502319335938
1767330490.1261208,729.4695434570312,745.7547607421875,730.0006103515625,724.1591796875
1767330490.130027,656.9828491210938,669.3737182617188,703.7142333984375,564.7592163085938
1767330490.1339333,713.98095703125,712.9188842773438,735.2224731445312,694.5980834960938
1767330490.0858123,795.7608642578125,792.6631469726562,764.341064453125,892.5868530273438
1767330490.0897186,759.8272705078125,763.987060546875,740.8869018554688,798.8585815429688
1767330490.0936248,680.6140747070312,670.6128540039062,717.7867431640625,571.3971557617188
1767330490.097531,696.5452270507812,673.97607421875,717.875244140625,639.6356201171875
1767330490.1014373,780.8917846679688,770.9790649414062,741.3294067382812,886.6569213867188
1767330490.1053436,780.3607177734375,789.8309326171875,744.16162109375,865.2383422851562
1767330490.1092498,690.6152954101562,693.1819458007812,720.087890625,611.4905395507812
1767330490.113156,666.7185668945312,657.9564208984375,715.4855346679688,572.9017944335938
1767330490.1170623,747.701904296875,746.6398315429688,736.2845458984375,816.8253784179688
1767330490.1209686,789.742431640625,808.1517333984375,749.1179809570312,902.0570068359375
1767330490.1248748,719.6453857421875,724.8672485351562,738.7627563476562,668.3116455078125
1767330490.128781,660.7001342773438,643.79541015625,715.9281005859375,550.7752075195312
1767330490.1326873,722.0350341796875,720.3533935546875,729.3810424804688,752.8352661132812
1767330490.1365936,792.6631469726562,809.3908081054688,748.9409790039062,921.616943359375
1767330490.1115346,746.9938354492188,751.59619140625,733.3638305664062,762.5709838867188
1767330490.1154408,670.1702880859375,663.620849609375,713.2728881835938,547.8544921875
1767330490.119347,700.6165161132812,699.8199462890625,721.4154663085938,663.7093505859375
1767330490.1232533,788.060791015625,789.3883666992188,743.0995483398438,898.6937866210938
1767330490.1271596,778.8561401367188,767.9698486328125,741.594970703125,837.1818237304688
1767330490.1310658,691.4118041992188,679.3749389648438,721.946533203125,587.4168090820312
1767330490.134972,684.9508666992188,675.3921508789062,720.5304565429688,605.3836059570312
1767330490.1388783,772.8377075195312,774.6078491210938,744.338623046875,853.2899780273438
1767330490.2097404,799.2125854492188,794.5217895507812,753.7203369140625,876.1246337890625
1767330490.2136467,713.0958862304688,694.4210205078125,721.592529296875,650.433349609375
1767330490.217553,667.4265747070312,663.3552856445312,708.8475952148438,565.1132202148438
1767330490.2214592,744.8696899414062,752.8352661132812,735.3109741210938,786.025146484375
1767330490.2253654,801.6907958984375,800.8942260742188,750.7996215820312,929.58251953125
1767330490.2292717,733.8948974609375,728.407470703125,730.089111328125,721.4154663085938
1767330490.233178,667.4265747070312,661.939208984375,711.1487426757812,539.3578491210938
1767330490.2370842,719.2028198242188,726.19482421875,732.5673217773438,708.7590942382812
1767330490.1886458,794.2562255859375,794.6987915039062,749.4719848632812,921.7939453125
1767330490.192552,758.6766967773438,747.6134033203125,732.3017578125,794.167724609375
1767330490.1964583,674.153076171875,667.7806396484375,713.626953125,558.03271484375
1767330490.2003646,693.3589477539062,702.6521606445312,724.5132446289062,625.4745483398438
1767330490.2042708,784.16650390625,785.0515747070312,754.7824096679688,870.8142700195312
1767330490.208177,781.5113525390625,766.1112060546875,745.4006958007812,872.4073486328125
1767330490.2120833,687.694580078125,685.658935546875,714.7775268554688,616.2698974609375
1767330490.2159896,669.4622192382812,676.2772216796875,718.5833129882812,575.0259399414062
1767330490.2198958,753.1892700195312,745.4891967773438,741.6834716796875,831.0748901367188
1767330490.223802,779.6527099609375,780.8917846679688,746.9938354492188,909.757080078125
1767330490.2277083,702.0325927734375,721.6810302734375,725.7523193359375,667.9576416015625
1767330490.2316146,651.6724853515625,678.3128662109375,711.9453125,536.0831298828125
1767330490.2355208,713.8924560546875,726.017822265625,726.7258911132812,748.055908203125
1767330490.239427,780.6262817382812,783.3699340820312,742.9225463867188,917.1915893554688
1767330490.2171633,729.4695434570312,738.6742553710938,732.124755859375,745.2236938476562
1767330490.2210696,658.7529907226562,679.1979370117188,721.76953125,538.4727783203125
1767330490.2249758,698.9348754882812,705.661376953125,736.6386108398438,662.47021484375
1767330490.228882,776.4664306640625,766.4652099609375,742.47998046875,914.8019409179688
1767330490.2327883,758.1456298828125,764.5181274414062,733.0098266601562,835.2346801757812
1767330490.2366946,681.4105834960938,692.9164428710938,719.73388671875,576.2650146484375
1767330490.2406008,688.2255859375,677.516357421875,720.44189453125,614.4112548828125
1767330490.244507,766.9962768554688,753.6318359375,735.1339721679688,866.7429809570312
1767330490.2484133,784.16650390625,784.5205688476562,738.7627563476562,882.4970703125
1767330490.2523196,709.90966796875,721.4154663085938,725.663818359375,627.2446899414062
1767330490.323388,672.5599975585938,674.330078125,719.73388671875,554.9349975585938
1767330490.3272943,742.3914794921875,731.94775390625,734.9569702148438,792.0435791015625
1767330490.3312006,792.2205810546875,785.2285766601562,745.666259765625,913.9168701171875
1767330490.3351068,732.0362548828125,738.8512573242188,738.8512573242188,698.6693725585938
1767330490.339013,671.8519287109375,669.4622192382812,727.0798950195312,528.4715576171875
1767330490.3429193,718.3177490234375,697.518798828125,724.336181640625,723.5396728515625
1767330490.3468256,786.8217163085938,782.2193603515625,744.2501220703125,926.042236328125
1767330490.3507318,750.8881225585938,761.6859130859375,740.09033203125,781.6883544921875
1767330490.354638,670.7013549804688,665.9219970703125,714.6890258789062,558.4752197265625
1767330490.3585443,688.402587890625,672.471435546875,717.4326782226562,644.7689819335938
1767330490.3624506,773.7227783203125,771.0675659179688,741.8604736328125,888.5155639648438
1767330490.3663568,774.165283203125,792.0435791015625,749.0294799804688,853.64404296875
1767330490.370263,689.2876586914062,691.0578002929688,724.2476806640625,604.9411010742188
1767330490.3741693,671.9404296875,655.7437744140625,712.6533813476562,586.2662353515625
1767330490.3339007,753.2777709960938,748.4984130859375,729.1155395507812,834.172607421875
1767330490.337807,789.6539306640625,807.6207275390625,741.77197265625,900.5524291992188
1767330490.3417132,722.5661010742188,729.8236083984375,736.196044921875,661.0541381835938
1767330490.3456194,671.1438598632812,655.832275390625,716.37060546875,558.9177856445312
1767330490.3495257,733.0098266601562,725.8408203125,726.5488891601562,771.3330688476562
1767330490.353432,801.4252319335938,802.0447998046875,746.1087646484375,924.9801635742188
1767330490.3573382,748.6754760742188,735.3994750976562,732.124755859375,753.1892700195312
1767330490.3612444,673.1795043945312,651.8494873046875,716.9016723632812,554.138427734375
1767330490.3651507,708.1395263671875,702.6521606445312,726.1063232421875,682.11865234375
1767330490.369057,789.91943359375,803.637939453125,744.9581909179688,907.54443359375
1767330490.3729632,772.7492065429688,775.2273559570312,740.09033203125,821.4276733398438
1767330490.3768694,685.9244384765625,678.8439331054688,721.2384643554688,573.5213623046875
1767330490.367868,687.1635131835938,684.154296875,722.5661010742188,613.61474609375
1767330490.3717742,767.704345703125,783.635498046875,740.6213989257812,858.6889038085938
1767330490.3756804,780.8032836914062,792.3975830078125,751.3306274414062,864.4417724609375
1767330490.3795867,689.8187255859375,683.623291015625,721.2384643554688,632.3780517578125
1767330490.383493,657.9564208984375,660.7001342773438,708.1395263671875,567.4143676757812
1767330490.3873992,741.1524047851562,753.8973388671875,734.0718994140625,795.1412963867188
1767330490.4624739,789.5654296875,789.8309326171875,743.630615234375,914.7134399414062
1767330490.4663801,723.0971069335938,718.8488159179688,726.6373901367188,701.590087890625
1767330490.4702864,661.1426391601562,664.4173583984375,712.3878173828125,536.9682006835938
1767330490.4741926,716.0166015625,728.6730346679688,727.699462890625,713.8924560546875
1767330490.4780989,790.6275024414062,798.3275146484375,745.1351928710938,917.0145874023438
1767330490.4820051,753.808837890625,752.6582641601562,733.806396484375,781.4227905273438
1767330490.4416294,672.9140014648438,668.8427124023438,714.4234619140625,547.0579223632812
1767330490.4455357,698.9348754882812,703.802734375,719.0258178710938,645.7425537109375
1767330490.449442,782.307861328125,783.9010009765625,734.7799682617188,925.865234375
1767330490.4533482,776.6434936523438,771.5101318359375,740.9754028320312,871.61083984375
1767330490.4572544,698.8463745117188,697.4302368164062,739.6478271484375,571.3971557617188
1767330490.4611607,683.80029296875,683.0037231445312,725.663818359375,580.6018676757812
1767330490.465067,764.7836303710938,756.5525512695312,733.0098266601562,853.998046875
1767330490.4689732,795.9378662109375,783.635498046875,741.594970703125,910.465087890625
1767330490.4728794,715.9281005859375,712.476318359375,720.264892578125,664.8599243164062
1767330490.4767857,674.5071411132812,677.1622924804688,715.0430297851562,549.9786376953125
1767330490.480692,746.8168334960938,735.7535400390625,733.4523315429688,774.34228515625
1767330490.4845982,799.920654296875,786.9102172851562,741.2409057617188,929.9365234375
1767330490.4885044,742.7455444335938,743.5421142578125,728.5845336914062,741.1524047851562
1767330490.4924107,675.3921508789062,687.4290161132812,722.300537109375,544.5797729492188
1767330490.463863,720.1763916015625,713.3613891601562,740.09033203125,681.8531494140625
1767330490.4677691,793.63671875,774.6078491210938,743.3650512695312,922.6790161132812
1767330490.4716754,762.305419921875,762.8364868164062,734.8684692382812,828.3311767578125
1767330490.4755816,679.4634399414062,693.62451171875,720.3533935546875,567.9454345703125
1767330490.479488,685.2163696289062,685.3933715820312,717.2556762695312,618.4825439453125
1767330490.4833941,766.1112060546875,762.8364868164062,736.196044921875,875.3280639648438
1767330490.4873004,775.1388549804688,781.77685546875,737.2581176757812,873.823486328125
1767330490.4912066,692.8279418945312,712.29931640625,720.264892578125,615.0308227539062
1767330490.495113,665.83349609375,670.3472900390625,717.521240234375,563.608642578125
1767330490.4990191,748.23291015625,730.443115234375,736.1075439453125,807.6207275390625
1767330490.5029254,794.4332275390625,792.9286499023438,743.984619140625,911.7042236328125
1767330490.5068316,725.5753173828125,748.23291015625,733.806396484375,685.8359375
1767330490.5927002,671.6749267578125,673.1795043945312,728.3189697265625,520.8600463867188
1767330490.5966065,722.300537109375,700.5280151367188,730.9741821289062,725.663818359375
1767330490.6005127,782.7504272460938,782.6619262695312,738.231689453125,920.7318725585938
1767330490.604419,744.8696899414062,761.3318481445312,732.5673217773438,763.1019897460938
1767330490.6083252,669.90478515625,667.4265747070312,715.1315307617188,546.7039184570312
1767330490.6122315,692.6509399414062,680.43701171875,719.8223876953125,651.4954223632812
1767330490.5713134,775.7584228515625,774.0767822265625,735.842041015625,892.7638549804688
1767330490.5752196,771.775634765625,778.8561401367188,737.70068359375,834.2611083984375
1767330490.579126,686.8980102539062,688.1370849609375,722.5661010742188,585.5582275390625
1767330490.5830321,676.6312866210938,675.4806518554688,717.1671752929688,588.036376953125
1767330490.5869384,759.915771484375,766.8192749023438,740.4443359375,842.315185546875
1767330490.5908446,788.060791015625,804.7000122070312,751.0651245117188,888.7810668945312
1767330490.594751,716.4591064453125,718.40625,738.3201904296875,636.0068359375
1767330490.5986571,668.7542114257812,648.043701171875,715.9281005859375,555.1119995117188
1767330490.6025634,731.3281860351562,719.9993896484375,720.8844604492188,781.3342895507812
1767330490.6064696,787.706787109375,795.4953002929688,740.6213989257812,914.00537109375
1767330490.610376,728.3189697265625,730.1776123046875,730.443115234375,728.1419677734375
1767330490.6142821,656.9828491210938,651.8494873046875,713.5384521484375,541.924560546875
1767330490.566263,702.3865966796875,705.1303100585938,723.4511108398438,688.7566528320312
1767330490.5701692,785.0515747070312,801.779296875,747.3478393554688,907.4558715820312
1767330490.5740755,760.7123413085938,770.0054931640625,746.6398315429688,808.5057983398438
1767330490.5779817,678.4013671875,680.5255737304688,723.8936767578125,569.53857421875
1767330490.581888,689.3761596679688,689.6417236328125,724.1591796875,624.5010375976562
1767330490.5857942,776.3779296875,786.5562133789062,745.9317626953125,872.6729125976562
1767330490.5897005,784.9630737304688,798.239013671875,749.2949829101562,852.2279052734375
1767330490.5936067,696.8107299804688,687.9600830078125,719.0258178710938,614.4112548828125
1767330490.597513,675.4806518554688,656.8943481445312,709.2901000976562,575.0259399414062
1767330490.6014192,760.1812744140625,752.481201171875,737.2581176757812,807.9747314453125
1767330490.6053255,800.3631591796875,794.5217895507812,747.0823364257812,912.7662963867188
1767330490.6092317,731.6822509765625,721.946533203125,726.5488891601562,691.765869140625
1767330490.613138,675.5692138671875,672.117431640625,711.9453125,539.0038452148438
1767330490.6170442,734.2489013671875,738.9397583007812,733.4523315429688,728.9385375976562
