timestamp,tp9,af7,af8,tp10
1767330576.8595726,773.2802124023438,777.7940673828125,731.5052490234375,843.3772583007812
1767330576.863479,688.402587890625,697.2532348632812,722.4775390625,607.0652465820312
1767330576.8673851,670.7898559570312,671.2323608398438,710.1751708984375,597.1525268554688
1767330576.8712914,751.3306274414062,749.560546875,728.7615356445312,823.1093139648438
1767330576.8751976,783.635498046875,792.9286499023438,741.0639038085938,878.6913452148438
1767330576.9298537,709.90966796875,725.2212524414062,731.6822509765625,663.0897827148438
1767330576.93376,659.6380615234375,660.9656372070312,721.946533203125,564.9362182617188
1767330576.9376662,721.946533203125,716.7246704101562,730.8856811523438,754.9594116210938
1767330576.9415724,780.3607177734375,786.4676513671875,736.7271118164062,899.2247924804688
1767330576.9454787,733.8948974609375,752.5697631835938,730.6201782226562,724.2476806640625
1767330576.949385,666.8070678710938,667.0725708007812,722.12353515625,547.3234252929688
1767330576.9532912,700.1739501953125,689.1106567382812,718.1407470703125,691.2348022460938
1767330576.9571974,784.16650390625,785.5826416015625,736.7271118164062,890.7282104492188
1767330576.9611037,769.56298828125,773.5457763671875,737.877685546875,808.240234375
1767330576.96501,684.6853637695312,677.516357421875,719.1143188476562,587.1513061523438
1767330576.9163327,687.7830810546875,678.04736328125,720.8844604492188,620.5182495117188
1767330576.920239,772.8377075195312,772.129638671875,733.806396484375,845.5899658203125
1767330576.9241452,792.0435791015625,792.0435791015625,734.6914672851562,859.3969116210938
1767330576.9280515,708.7590942382812,700.5280151367188,721.2384643554688,636.36083984375
1767330576.9319577,673.0910034179688,660.08056640625,712.6533813476562,569.53857421875
1767330576.935864,753.5433349609375,744.7811889648438,723.0086059570312,786.7332153320312
1767330576.9397702,807.7977294921875,809.3023071289062,745.7547607421875,883.2051391601562
1767330576.9436765,738.3201904296875,725.4867553710938,735.1339721679688,689.55322265625
1767330576.9475827,670.7898559570312,655.3012084960938,710.7947387695312,569.3615112304688
1767330576.951489,723.7166748046875,725.1327514648438,726.8143920898438,730.0006103515625
1767330576.9553952,797.7080078125,799.3010864257812,743.8076171875,908.6065063476562
1767330576.9593015,753.0122680664062,752.0386962890625,732.124755859375,783.7239990234375
1767330576.9632077,666.0989990234375,673.5335693359375,716.8131713867188,573.5213623046875
1767330576.967114,690.084228515625,700.6165161132812,724.1591796875,658.1334228515625
1767330576.9424098,776.5549926757812,782.6619262695312,744.5156860351562,884.355712890625
1767330576.946316,769.6514892578125,763.1904907226562,738.1431884765625,850.28076171875
1767330576.9502223,683.1807250976562,680.43701171875,716.9016723632812,615.0308227539062
1767330576.9541285,673.4450073242188,683.1807250976562,716.7246704101562,605.0296020507812
1767330576.9580348,761.6859130859375,770.3594970703125,744.4271240234375,823.5518798828125
1767330576.961941,793.2826538085938,788.8573608398438,750.6226196289062,880.3729248046875
1767330576.9658473,710.7062377929688,712.476318359375,727.2568969726562,676.1002197265625
1767330576.9697535,668.8427124023438,678.8439331054688,723.4511108398438,568.1224365234375
1767330577.0963078,740.6213989257812,738.0546875,734.160400390625,767.88134765625
1767330577.100214,797.3539428710938,780.5377807617188,744.16162109375,911.792724609375
1767330577.072375,742.2144775390625,731.2396850585938,730.089111328125,734.5144653320312
1767330577.0762813,669.727783203125,676.7197875976562,713.2728881835938,556.6166381835938
1767330577.0801876,714.0694580078125,725.4867553710938,725.9293212890625,697.0762329101562
1767330577.0840938,793.2826538085938,789.0343627929688,747.701904296875,906.7478637695312
1767330577.088,764.6951293945312,762.6594848632812,740.3558349609375,806.6471557617188
1767330577.0919063,682.11865234375,692.5624389648438,718.3177490234375,580.9558715820312
1767330577.0958126,696.8992309570312,709.5556640625,733.8948974609375,622.8193969726562
1767330577.0997188,782.8389282226562,770.0054931640625,749.2064819335938,854.0865478515625
1767330577.103625,784.7860717773438,764.5181274414062,733.62939453125,869.0441284179688
1767330577.1075313,700.8820190429688,698.40380859375,717.7867431640625,630.5194702148438
1767330577.1114376,678.7554321289062,678.8439331054688,718.1407470703125,581.2213745117188
1767330577.1153438,755.5789794921875,737.2581176757812,740.5328979492188,811.5150146484375
1767330577.0664382,794.6987915039062,778.9446411132812,742.8340454101562,903.3845825195312
1767330577.0703444,726.9913940429688,735.2224731445312,722.5661010742188,686.9865112304688
1767330577.0742507,675.3036499023438,687.694580078125,718.8488159179688,554.492431640625
1767330577.078157,727.0798950195312,721.2384643554688,736.5501098632812,739.736328125
1767330577.0820632,789.8309326171875,780.1837158203125,744.6926879882812,905.4202270507812
1767330577.0859694,745.4006958007812,747.7904052734375,729.2040405273438,764.1640625
1767330577.0898757,671.3208618164062,685.3933715820312,722.4775390625,555.1119995117188
1767330577.093782,699.6429443359375,698.3153076171875,730.7971801757812,656.36328125
1767330577.0976882,777.2630004882812,763.81005859375,739.736328125,896.03857421875
1767330577.1015944,767.704345703125,778.3250732421875,736.8156127929688,834.6151733398438
1767330577.1055007,683.623291015625,704.6878051757812,721.0614624023438,597.9490966796875
1767330577.109407,672.9140014648438,669.3737182617188,717.0786743164062,607.1537475585938
1767330577.1133132,751.9501953125,747.7904052734375,731.8592529296875,835.854248046875
1767330577.1172194,779.3871459960938,791.6895751953125,742.302978515625,875.0625610351562
1767330577.107653,707.1659545898438,722.0350341796875,730.9741821289062,650.9644165039062
1767330577.1115592,662.8242797851562,661.4081420898438,711.8568115234375,564.9362182617188
1767330577.1154654,730.0006103515625,723.3626098632812,724.6902465820312,768.5009155273438
1767330577.1193717,788.5033569335938,796.1148681640625,744.0731201171875,902.1455078125
1767330577.1866379,736.01904296875,754.0743408203125,737.70068359375,713.626953125
1767330577.1905441,671.9404296875,667.51513671875,722.300537109375,541.4819946289062
1767330577.1944504,711.768310546875,695.0405883789062,718.9373168945312,705.7498779296875
1767330577.1983566,790.2734375,786.9102172851562,737.0811157226562,900.9949340820312
1767330577.2022629,766.376708984375,768.058349609375,738.1431884765625,792.486083984375
1767330577.2061691,683.4462280273438,679.9945068359375,717.9637451171875,581.0443725585938
1767330577.2100754,693.3589477539062,689.4646606445312,719.6453857421875,642.290771484375
1767330577.2139816,777.4400024414062,780.09521484375,744.6926879882812,869.3096313476562
1767330577.2178879,782.307861328125,793.813720703125,742.8340454101562,855.7681884765625
1767330577.2217941,700.08544921875,694.9520874023438,722.6546020507812,627.9527587890625
1767330577.1971655,680.5255737304688,664.15185546875,724.6017456054688,590.426025390625
1767330577.2010717,754.6054077148438,752.3927001953125,739.3822631835938,813.4620971679688
1767330577.204978,798.06201171875,807.4436645507812,750.091552734375,886.4798583984375
1767330577.2088842,730.8856811523438,731.4166870117188,735.7535400390625,677.4277954101562
1767330577.2127905,667.0725708007812,668.22314453125,712.6533813476562,571.3086547851562
1767330577.2166967,724.9557495117188,733.0983276367188,726.5488891601562,747.3478393554688
1767330577.220603,794.4332275390625,799.3010864257812,746.6398315429688,909.2260131835938
1767330577.2245092,750.7996215820312,747.52490234375,734.0718994140625,771.775634765625
1767330577.1839826,676.1002197265625,676.1002197265625,722.5661010742188,580.5133666992188
1767330577.1878889,701.8555908203125,703.7142333984375,735.7535400390625,683.5347900390625
1767330577.191795,784.6090698242188,782.2193603515625,748.1444091796875,895.861572265625
1767330577.1957014,770.9790649414062,761.951416015625,736.1075439453125,833.4645385742188
1767330577.1996076,685.2163696289062,674.5071411132812,716.0166015625,601.0468139648438
1767330577.2035139,685.3048706054688,680.6140747070312,720.3533935546875,616.3583984375
1767330577.20742,775.4043579101562,778.0595703125,746.8168334960938,842.2266845703125
1767330577.2113264,797.6195068359375,784.0780029296875,749.4719848632812,872.31884765625
1767330577.2152326,710.5292358398438,698.6693725585938,723.7166748046875,660.3460693359375
1767330577.2191389,672.2059326171875,679.0209350585938,721.6810302734375,575.7340087890625
1767330577.223045,747.1708374023438,750.8881225585938,740.3558349609375,781.8653564453125
1767330577.2269514,794.5217895507812,786.025146484375,743.4535522460938,904.8007202148438
1767330577.261244,726.6373901367188,725.3982543945312,722.7431030273438,714.4234619140625
1767330577.2651503,661.585205078125,674.0645751953125,707.4314575195312,550.5097045898438
1767330577.3212094,710.7062377929688,721.2384643554688,721.2384643554688,702.2095947265625
1767330577.3251157,786.379150390625,780.6262817382812,741.4179077148438,899.4902954101562
1767330577.2895186,751.2421264648438,751.773193359375,740.267333984375,782.3963623046875
1767330577.2934248,666.8955688476562,681.8531494140625,722.0350341796875,564.4051513671875
1767330577.297331,687.694580078125,702.7406616210938,732.3902587890625,625.2090454101562
1767330577.3012373,777.9710693359375,775.4928588867188,753.7203369140625,853.64404296875
1767330577.3051436,770.27099609375,762.6594848632812,733.0098266601562,844.9703979492188
1767330577.3090498,679.9945068359375,692.2083740234375,710.5292358398438,600.1617431640625
1767330577.312956,669.1967163085938,684.9508666992188,713.1843872070312,573.0787963867188
1767330577.3168623,752.30419921875,747.2593383789062,727.4338989257812,809.2138061523438
1767330577.3207686,782.6619262695312,778.5906372070312,732.9213256835938,879.2223510742188
1767330577.3246748,708.4935302734375,724.5132446289062,727.5224609375,666.364501953125
1767330577.328581,662.1162109375,683.0037231445312,721.6810302734375,551.748779296875
1767330577.3324873,727.2568969726562,723.628173828125,727.87646484375,751.59619140625
1767330577.3363936,789.8309326171875,771.95263671875,740.8869018554688,906.9248657226562
1767330577.3402998,734.6029663085938,740.6213989257812,729.2925415039062,742.1259765625
1767330577.2915947,666.2760009765625,694.5095825195312,723.1856079101562,549.8016357421875
1767330577.295501,707.4314575195312,708.4935302734375,735.3994750976562,669.90478515625
1767330577.2994072,782.9274291992188,766.9077758789062,737.6121826171875,900.0213623046875
1767330577.3033135,758.8536987304688,766.6422729492188,732.124755859375,816.205810546875
1767330577.3072197,675.65771484375,695.837158203125,715.2200317382812,582.283447265625
1767330577.311126,680.260009765625,683.1807250976562,718.229248046875,620.8722534179688
1767330577.3150322,765.3146362304688,753.98583984375,736.196044921875,850.6348266601562
1767330577.3189385,786.2021484375,786.7332153320312,738.7627563476562,864.6188354492188
1767330577.3228447,707.0774536132812,721.5040283203125,728.1419677734375,637.1574096679688
1767330577.326751,669.90478515625,663.0897827148438,721.6810302734375,577.5926513671875
1767330577.3306572,744.16162109375,726.19482421875,737.1696166992188,788.5033569335938
1767330577.3345635,790.0079345703125,787.6182861328125,744.16162109375,892.9408569335938
1767330577.3384697,727.6109619140625,746.4627685546875,735.9305419921875,693.5360107421875
1767330577.342376,667.869140625,675.0381469726562,724.0706787109375,541.8360595703125
1767330577.3811126,714.5120239257812,704.7763061523438,721.2384643554688,721.8580322265625
1767330577.3850188,790.8930053710938,792.5746459960938,741.1524047851562,899.1362915039062
1767330577.4199946,752.7467651367188,770.1824951171875,733.806396484375,765.5802001953125
1767330577.4239008,665.1254272460938,673.799072265625,713.0073852539062,562.5465698242188
1767330577.427807,687.87158203125,678.5784301757812,720.1763916015625,646.9816284179688
1767330577.4317133,773.811279296875,771.775634765625,740.1788330078125,870.460205078125
1767330577.4356196,770.0054931640625,785.84814453125,743.7191162109375,832.8450317382812
1767330577.4395258,684.8623657226562,689.8187255859375,724.1591796875,602.9939575195312
1767330577.443432,667.2495727539062,665.4794311523438,718.6718139648438,589.9835205078125
1767330577.4473383,745.666259765625,756.1099853515625,732.8328247070312,819.1265258789062
1767330577.4321718,781.2457885742188,806.8241577148438,751.59619140625,872.8499145507812
1767330577.436078,713.1843872070312,725.9293212890625,740.0018310546875,656.4517822265625
1767330577.4399843,660.5231323242188,652.2034912109375,710.6177368164062,567.5029296875
1767330577.4438906,723.3626098632812,722.6546020507812,726.1063232421875,757.0835571289062
1767330577.4477968,793.9022216796875,803.1068725585938,750.9766235351562,901.7030029296875
1767330577.451703,739.2052612304688,740.7984008789062,736.2845458984375,741.1524047851562
1767330577.4556093,664.5944213867188,664.5059204101562,721.1499633789062,560.245361328125
1767330577.4595156,704.333740234375,713.7154541015625,734.33740234375,688.402587890625
1767330577.4634218,785.4940795898438,794.2562255859375,746.374267578125,891.2592163085938
1767330577.467328,761.2433471679688,755.9329833984375,734.6914672851562,806.5586547851562
1767330577.4712343,675.4806518554688,671.9404296875,718.05224609375,581.575439453125
1767330577.4751406,684.5968627929688,678.4898681640625,717.1671752929688,618.7481079101562
1767330577.434036,779.8297119140625,770.5365600585938,743.2765502929688,846.4749755859375
1767330577.4379423,795.9378662109375,782.8389282226562,749.91455078125,857.2727661132812
1767330577.4418485,705.2188110351562,694.33251953125,721.5040283203125,645.2999877929688
1767330577.4457548,673.2680053710938,680.6140747070312,719.2028198242188,587.5938720703125
1767330577.449661,753.1892700195312,757.1720581054688,741.594970703125,802.8413696289062
1767330577.4535673,797.531005859375,783.8125,751.773193359375,908.429443359375
1767330577.4574735,730.7971801757812,727.3453979492188,733.9833984375,707.9625244140625
1767330577.4613798,669.4622192382812,679.72900390625,719.2028198242188,561.75
1767330577.465286,718.9373168945312,723.5396728515625,733.1868286132812,728.9385375976562
1767330577.4691923,790.5390014648438,778.9446411132812,746.2857666015625,909.6685791015625
1767330577.4730985,750.3570556640625,740.8869018554688,733.4523315429688,771.775634765625
1767330577.4770048,667.3380737304688,674.6841430664062,715.7510986328125,562.0155029296875
1767330577.5708058,700.9705200195312,711.59130859375,733.4523315429688,648.8402709960938
1767330577.574712,788.3262939453125,777.9710693359375,749.2949829101562,869.1326293945312
1767330577.5786183,774.7848510742188,756.37548828125,730.1776123046875,843.2887573242188
1767330577.5825245,689.9072265625,689.3761596679688,718.229248046875,608.9238891601562
1767330577.5338216,681.0565795898438,690.3497314453125,722.6546020507812,599.0111694335938
1767330577.5377278,767.704345703125,763.633056640625,740.267333984375,839.0404663085938
1767330577.541634,792.2205810546875,786.9987182617188,745.9317626953125,887.4534301757812
1767330577.5455403,712.122314453125,714.6890258789062,727.3453979492188,655.832275390625
1767330577.5494466,672.3829345703125,676.8967895507812,715.839599609375,558.4752197265625
1767330577.5533528,742.5685424804688,729.55810546875,731.6822509765625,768.5894165039062
1767330577.557259,797.1769409179688,778.1480712890625,741.4179077148438,905.0662231445312
1767330577.5611653,738.6742553710938,735.7535400390625,724.6017456054688,730.0006103515625
1767330577.5650716,674.7726440429688,689.4646606445312,714.6890258789062,549.9786376953125
1767330577.5689778,719.2913208007812,713.8924560546875,727.699462890625,683.80029296875
1767330577.572884,790.3619384765625,761.2433471679688,737.4351196289062,905.685791015625
1767330577.5767903,763.633056640625,757.9686279296875,733.7178955078125,809.1253051757812
1767330577.5806966,681.7646484375,697.4302368164062,725.2212524414062,576.5305786132812
1767330577.5846028,690.5267944335938,684.5968627929688,723.0971069335938,634.5022583007812
1767330577.568221,776.8204956054688,752.7467651367188,732.124755859375,867.2739868164062
1767330577.5721273,784.4320068359375,775.846923828125,732.478759765625,858.3348388671875
1767330577.5760336,703.2716674804688,714.157958984375,718.1407470703125,626.5366821289062
1767330577.5799398,674.2415771484375,675.0381469726562,717.7867431640625,583.7880859375
1767330577.583846,745.3121948242188,737.6121826171875,730.3546142578125,801.779296875
1767330577.5877523,784.5205688476562,786.8217163085938,732.8328247070312,893.3833618164062
1767330577.5979135,719.910888671875,736.7271118164062,731.8592529296875,681.7646484375
1767330577.6018198,673.1795043945312,678.9324340820312,730.1776123046875,548.031494140625
1767330577.605726,726.371826171875,716.0166015625,721.592529296875,741.1524047851562
1767330577.6096323,785.4055786132812,784.6090698242188,740.1788330078125,903.8271484375
1767330577.6135385,738.7627563476562,751.4191284179688,744.0731201171875,754.2513427734375
1767330577.6174448,665.3024291992188,661.1426391601562,715.4855346679688,561.1304321289062
1767330577.621351,694.6865844726562,682.11865234375,714.8660278320312,664.5059204101562
1767330577.6252573,774.5193481445312,774.4307861328125,738.7627563476562,874.7085571289062
1767330577.6726923,765.4916381835938,776.200927734375,743.5421142578125,813.816162109375
1767330577.6765985,677.9588623046875,680.3485107421875,720.9729614257812,592.0191650390625
1767330577.6805048,673.4450073242188,672.3829345703125,723.5396728515625,591.753662109375
1767330577.684411,762.9249877929688,763.1904907226562,737.4351196289062,827.8001708984375
1767330577.6883173,779.6527099609375,792.486083984375,741.4179077148438,870.106201171875
1767330577.6922235,697.9613037109375,710.086669921875,730.26611328125,633.4401245117188
1767330577.6961298,660.5231323242188,656.36328125,708.1395263671875,570.3350830078125
1767330577.700036,733.62939453125,733.806396484375,718.8488159179688,776.8204956054688
1767330577.6644275,790.2734375,800.0091552734375,735.4879760742188,895.7730712890625
1767330577.6683338,735.3994750976562,738.9397583007812,730.26611328125,725.663818359375
1767330577.67224,670.7013549804688,662.6472778320312,711.4142456054688,563.78564453125
1767330577.6761463,713.5384521484375,709.3786010742188,715.3970336914062,702.0325927734375
1767330577.6800525,794.0792236328125,801.0712280273438,741.2409057617188,897.9857177734375
1767330577.6839588,764.2525634765625,763.2789916992188,741.0639038085938,803.81494140625
1767330577.687865,669.4622192382812,672.6484985351562,718.9373168945312,583.8765869140625
1767330577.6917713,678.4898681640625,684.331298828125,718.1407470703125,638.3079833984375
1767330577.6956775,768.5009155273438,773.5457763671875,745.7547607421875,859.927978515625
1767330577.6995838,775.2273559570312,773.5457763671875,751.9501953125,841.607177734375
1767330577.70349,684.9508666992188,684.7738647460938,717.6097412109375,624.5895385742188
1767330577.7073963,663.1782836914062,676.5427856445312,707.8740234375,585.9122314453125
1767330577.7113025,746.1087646484375,768.7664184570312,732.478759765625,805.3195190429688
1767330577.7152088,785.3170776367188,794.0792236328125,737.9661865234375,890.8167114257812
1767330577.7096567,712.0338134765625,714.6005249023438,720.6189575195312,680.3485107421875
1767330577.713563,654.7702026367188,671.6749267578125,712.0338134765625,549.2705688476562
1767330577.7174692,722.300537109375,735.4879760742188,727.699462890625,730.443115234375
1767330577.7213755,790.5390014648438,787.1757202148438,743.984619140625,898.8707885742188
1767330577.7252817,738.8512573242188,741.1524047851562,729.912109375,745.9317626953125
1767330577.729188,662.6472778320312,676.6312866210938,712.8303833007812,550.5982055664062
1767330577.7330942,694.9520874023438,710.1751708984375,725.5753173828125,655.4782104492188
1767330577.7370005,785.671142578125,776.200927734375,749.3834838867188,870.6372680664062
1767330577.7409067,770.27099609375,760.8893432617188,738.7627563476562,825.4104614257812
1767330577.744813,679.9945068359375,695.1290893554688,716.7246704101562,595.9134521484375
1767330577.7993512,677.693359375,688.048583984375,718.4947509765625,603.79052734375
1767330577.8032575,765.845703125,752.30419921875,738.40869140625,843.5543212890625
1767330577.8071637,787.7952880859375,774.4307861328125,743.4535522460938,872.9384155273438
1767330577.81107,704.6878051757812,712.3878173828125,721.592529296875,639.1930541992188
1767330577.8149762,672.5599975585938,686.2784423828125,716.8131713867188,567.0603637695312
1767330577.8188825,752.127197265625,745.3121948242188,736.9926147460938,789.6539306640625
1767330577.8227887,801.8677978515625,786.5562133789062,740.1788330078125,909.1375122070312
1767330577.826695,740.0018310546875,735.2224731445312,728.7615356445312,714.5120239257812
1767330577.8306012,677.0737915039062,682.8267211914062,720.087890625,566.0867919921875
1767330577.8345075,729.1155395507812,717.6982421875,734.5144653320312,712.122314453125
1767330577.7868276,803.1068725585938,775.9354248046875,747.701904296875,902.8535766601562
1767330577.7907338,764.5181274414062,758.1456298828125,736.2845458984375,804.7000122070312
1767330577.79464,684.7738647460938,699.6429443359375,726.5488891601562,580.1593017578125
1767330577.7985463,697.518798828125,694.6865844726562,722.9201049804688,650.6104125976562
1767330577.8024526,776.4664306640625,760.9778442382812,730.7971801757812,876.8327026367188
1767330577.8063588,772.306640625,777.7940673828125,736.6386108398438,844.9703979492188
1767330577.810265,688.1370849609375,708.4935302734375,725.5753173828125,606.9767456054688
1767330577.8141713,670.5243530273438,670.1702880859375,719.2913208007812,591.9306640625
1767330577.8180776,747.1708374023438,738.4971923828125,738.1431884765625,821.1621704101562
1767330577.8219838,780.8917846679688,787.2642211914062,743.984619140625,886.391357421875
1767330577.82589,715.2200317382812,739.1167602539062,731.59375,665.2139282226562
1767330577.8297963,669.9932861328125,679.906005859375,728.053466796875,541.570556640625
1767330577.8337026,720.7959594726562,715.7510986328125,729.3810424804688,745.2236938476562
1767330577.8376088,777.882568359375,782.130859375,738.8512573242188,897.0121459960938
1767330577.8527865,731.5052490234375,749.4719848632812,731.3281860351562,728.1419677734375
1767330577.8566928,655.1242065429688,672.7369995117188,712.122314453125,545.641845703125
1767330577.860599,691.5003662109375,692.3853759765625,721.1499633789062,668.8427124023438
1767330577.8645053,772.2181396484375,780.1837158203125,740.267333984375,875.9476318359375
1767330577.8684115,755.0479125976562,786.379150390625,738.6742553710938,797.3539428710938
1767330577.8723178,673.2680053710938,690.26123046875,720.7074584960938,579.2742309570312
1767330577.876224,672.8255004882812,670.9668579101562,717.9637451171875,607.5963134765625
1767330577.8801303,761.1548461914062,761.1548461914062,734.0718994140625,841.4301147460938
1767330577.9427667,788.5033569335938,794.7872924804688,742.8340454101562,858.8659057617188
1767330577.946673,715.3085327148438,713.1843872070312,736.4615478515625,627.8642578125
1767330577.9505792,682.295654296875,663.8863525390625,721.4154663085938,589.4524536132812
1767330577.9544854,755.2249145507812,730.8856811523438,729.8236083984375,807.88623046875
1767330577.9583917,806.8241577148438,793.0171508789062,747.0823364257812,907.1018676757812
1767330577.962298,743.0110473632812,737.4351196289062,734.5144653320312,719.910888671875
1767330577.9662042,677.9588623046875,671.2323608398438,713.803955078125,569.715576171875
1767330577.9701104,723.982177734375,714.157958984375,722.2120361328125,724.6902465820312
1767330577.9217846,793.3711547851562,792.9286499023438,740.6213989257812,900.8179321289062
1767330577.925691,757.880126953125,754.5169067382812,733.3638305664062,781.5113525390625
1767330577.9295971,680.260009765625,672.9140014648438,719.4683227539062,575.822509765625
1767330577.9335034,695.7486572265625,692.5624389648438,723.1856079101562,652.7345581054688
1767330577.9374096,780.44921875,781.2457885742188,741.948974609375,871.5223388671875
1767330577.941316,779.0331420898438,779.8297119140625,756.8180541992188,827.888671875
1767330577.9452221,686.366943359375,692.3853759765625,730.9741821289062,610.5170288085938
1767330577.9491284,666.5415649414062,681.3220825195312,712.5648803710938,594.9398803710938
1767330577.9530346,745.7547607421875,760.7123413085938,732.6558227539062,811.95751953125
1767330577.956941,776.4664306640625,779.8297119140625,740.8869018554688,877.7177734375
1767330577.9608471,701.1475219726562,709.1130981445312,720.1763916015625,661.4081420898438
1767330577.9647534,653.0885620117188,671.3208618164062,711.0602416992188,550.7752075195312
1767330577.9686596,724.4246826171875,731.4166870117188,731.1511840820312,750.2685546875
1767330577.972566,786.1136474609375,779.0331420898438,741.4179077148438,904.6237182617188
1767330577.9395363,728.7615356445312,733.4523315429688,735.2224731445312,735.4879760742188
1767330577.9434426,660.257568359375,671.1438598632812,729.3810424804688,557.5902099609375
1767330577.9473488,701.8555908203125,712.3878173828125,730.9741821289062,679.9945068359375
1767330577.951255,787.6182861328125,788.414794921875,746.6398315429688,877.2752075195312
1767330577.9551613,766.6422729492188,753.0122680664062,731.1511840820312,809.0368041992188
1767330577.9590676,683.3577270507812,679.72900390625,708.7590942382812,585.9122314453125
1767330577.9629738,689.1991577148438,694.6865844726562,716.8131713867188,616.181396484375
1767330577.96688,774.4307861328125,763.987060546875,738.9397583007812,855.6796875
1767330577.9707863,791.1585083007812,770.7135620117188,742.8340454101562,872.31884765625
1767330577.9746926,710.9717407226562,704.15673828125,725.0442504882812,640.6976928710938
1767330578.043613,685.3933715820312,687.694580078125,719.6453857421875,586.9743041992188
1767330578.0475192,766.022705078125,749.4719848632812,735.3994750976562,817.9759521484375
1767330578.0514255,809.8333740234375,788.5918579101562,739.6478271484375,918.6077270507812
1767330578.0553317,736.9041137695312,735.4879760742188,731.6822509765625,709.4671020507812
1767330578.059238,677.0737915039062,687.517578125,720.44189453125,573.2557983398438
1767330578.0631442,729.735107421875,729.2040405273438,718.05224609375,760.7123413085938
1767330578.0670505,793.63671875,784.6975708007812,729.1155395507812,929.759521484375
1767330578.0709567,756.021484375,754.9594116210938,733.62939453125,780.1837158203125
1767330578.074863,693.0049438476562,696.8992309570312,744.6926879882812,546.9694213867188
1767330578.0787692,707.4314575195312,693.2704467773438,737.3466186523438,651.2299194335938
1767330578.0826755,777.6170654296875,756.7295532226562,736.5501098632812,889.931640625
1767330578.0865817,770.0054931640625,768.7664184570312,737.1696166992188,829.0392456054688
1767330578.090488,683.4462280273438,704.4222412109375,720.8844604492188,593.2582397460938
1767330578.0943942,674.8611450195312,684.0657958984375,723.982177734375,599.6307373046875
1767330578.0541859,755.844482421875,749.560546875,736.6386108398438,830.6323852539062
1767330578.058092,778.8561401367188,783.2814331054688,741.6834716796875,872.31884765625
1767330578.0619984,700.7050170898438,723.8936767578125,734.4259033203125,646.008056640625
1767330578.0659046,659.8150634765625,673.799072265625,724.9557495117188,545.3762817382812
1767330578.0698109,726.9028930664062,717.4326782226562,727.0798950195312,767.4387817382812
1767330578.073717,784.6975708007812,784.343505859375,737.70068359375,907.721435546875
1767330578.0776234,728.7615356445312,747.9674072265625,732.5673217773438,720.8844604492188
1767330578.0815296,660.9656372070312,667.869140625,716.6361694335938,552.456787109375
1767330578.0854359,701.4130249023438,699.554443359375,720.8844604492188,690.5267944335938
1767330578.089342,772.483642578125,782.48486328125,740.5328979492188,885.1522827148438
1767330578.0932484,751.9501953125,771.0675659179688,741.948974609375,784.343505859375
1767330578.0971546,674.9496459960938,680.43701171875,718.7603149414062,570.7776489257812
1767330578.0834208,684.9508666992188,682.0301513671875,712.6533813476562,627.8642578125
1767330578.087327,773.811279296875,772.8377075195312,735.2224731445312,857.2727661132812
1767330578.0912333,784.7860717773438,796.203369140625,746.9053344726562,846.2979736328125
1767330578.0951395,707.8740234375,715.9281005859375,733.4523315429688,611.5791015625
1767330578.0990458,680.8795776367188,666.9840698242188,709.0245971679688,589.6295166015625
1767330578.102952,755.0479125976562,741.6834716796875,725.9293212890625,814.7012329101562
1767330578.1928442,798.5930786132812,796.38037109375,747.4363403320312,896.1270751953125
1767330578.1967504,731.94775390625,725.4867553710938,728.407470703125,702.2095947265625
1767330578.2006567,676.2772216796875,664.6829223632812,715.1315307617188,569.0960083007812
1767330578.204563,732.9213256835938,722.4775390625,724.6017456054688,741.3294067382812
1767330578.2084692,797.9735107421875,795.849365234375,743.3650512695312,907.3673706054688
1767330578.2123754,745.7547607421875,745.2236938476562,735.842041015625,763.4559936523438
1767330578.1643016,664.8599243164062,661.4966430664062,713.7154541015625,567.5914306640625
1767330578.168208,695.2175903320312,695.2175903320312,719.8223876953125,659.1069946289062
1767330578.1721141,780.44921875,784.8745727539062,736.5501098632812,882.14306640625
1767330578.1760204,766.5537719726562,772.7492065429688,731.5052490234375,841.1646118164062
1767330578.1799266,684.331298828125,690.6152954101562,732.0362548828125,577.2385864257812
1767330578.183833,675.2151489257812,681.8531494140625,722.0350341796875,595.2938842773438
1767330578.1877391,751.9501953125,769.2089233398438,729.2040405273438,841.6956787109375
1767330578.1916454,777.0859985351562,784.7860717773438,744.7811889648438,870.3717041015625
1767330578.1955516,697.872802734375,697.9613037109375,723.2741088867188,646.8931274414062
1767330578.199458,658.1334228515625,667.0725708007812,709.6441650390625,558.6522827148438
1767330578.2033641,733.7178955078125,743.5421142578125,726.6373901367188,759.2962036132812
1767330578.2072704,793.1941528320312,783.635498046875,740.3558349609375,893.64892578125
1767330578.2111766,736.01904296875,721.8580322265625,729.2040405273438,719.2913208007812
1767330578.215083,668.7542114257812,663.2667846679688,719.2028198242188,554.4039306640625
1767330578.1746254,712.6533813476562,712.5648803710938,733.7178955078125,697.2532348632812
1767330578.1785316,798.9470825195312,787.3527221679688,759.6502685546875,885.1522827148438
1767330578.182438,769.2974243164062,749.2949829101562,734.6914672851562,792.8401489257812
1767330578.1863441,684.2427978515625,681.3220825195312,711.0602416992188,579.716796875
1767330578.1902504,700.262451171875,710.7062377929688,722.9201049804688,634.7677612304688
1767330578.1941566,781.2457885742188,774.6078491210938,736.2845458984375,870.3717041015625
1767330578.198063,786.2906494140625,768.2353515625,736.9041137695312,860.8130493164062
1767330578.2019691,705.5728759765625,697.9613037109375,719.9993896484375,625.2975463867188
1767330578.2058754,684.331298828125,685.3933715820312,719.2913208007812,590.2490234375
1767330578.2097816,762.482421875,757.6146240234375,741.8604736328125,825.5875244140625
1767330578.213688,799.2125854492188,788.6803588867188,748.23291015625,906.393798828125
1767330578.2175941,723.0086059570312,723.982177734375,727.3453979492188,689.1991577148438
1767330578.3206944,668.1346435546875,686.366943359375,717.875244140625,556.6166381835938
1767330578.3246007,730.8856811523438,742.1259765625,737.877685546875,735.4879760742188
1767330578.328507,794.6102905273438,784.6090698242188,741.6834716796875,916.9260864257812
1767330578.3324132,744.5156860351562,736.9041137695312,724.9557495117188,764.9606323242188
1767330578.283766,675.3036499023438,685.1278686523438,718.3177490234375,560.245361328125
1767330578.2876723,711.0602416992188,711.6798095703125,726.9913940429688,679.906005859375
1767330578.2915785,785.4940795898438,774.4307861328125,740.1788330078125,894.179931640625
1767330578.2954848,766.4652099609375,772.7492065429688,733.3638305664062,816.1173095703125
1767330578.299391,682.9152221679688,702.7406616210938,715.66259765625,583.8765869140625
1767330578.3032973,683.623291015625,682.2071533203125,720.3533935546875,611.2250366210938
1767330578.3072035,762.482421875,752.481201171875,743.0995483398438,846.032470703125
1767330578.3111098,777.882568359375,779.7412109375,742.0374755859375,870.5487670898438
1767330578.315016,699.2003784179688,713.3613891601562,721.1499633789062,637.0689086914062
1767330578.3189223,667.2495727539062,669.6392822265625,721.4154663085938,548.8280639648438
1767330578.3228285,737.70068359375,716.4591064453125,735.3994750976562,779.564208984375
1767330578.3267348,785.3170776367188,777.1744995117188,738.8512573242188,901.5260009765625
1767330578.330641,725.5753173828125,746.5513305664062,729.2925415039062,699.9969482421875
1767330578.3345473,663.7093505859375,677.870361328125,721.1499633789062,556.35107421875
1767330578.286483,713.2728881835938,706.7234497070312,727.699462890625,716.6361694335938
1767330578.2903893,785.84814453125,783.2814331054688,743.8076171875,898.5167846679688
1767330578.2942955,751.9501953125,761.951416015625,746.9938354492188,772.3951416015625
1767330578.2982018,673.0025024414062,676.36572265625,731.3281860351562,566.7948608398438
1767330578.302108,688.8451538085938,682.0301513671875,725.663818359375,646.8931274414062
1767330578.3060143,768.3238525390625,763.633056640625,738.40869140625,868.6016235351562
1767330578.3099205,768.8549194335938,783.3699340820312,741.5064697265625,838.243896484375
1767330578.3138268,689.4646606445312,705.1303100585938,731.94775390625,598.1260986328125
1767330578.317733,668.400146484375,663.0897827148438,717.1671752929688,590.2490234375
1767330578.3216393,748.1444091796875,747.4363403320312,731.94775390625,829.0392456054688
1767330578.3255455,788.3262939453125,800.9827270507812,747.0823364257812,890.462646484375
1767330578.3294518,716.1051025390625,721.946533203125,730.9741821289062,677.693359375
1767330578.333358,666.010498046875,666.8070678710938,715.2200317382812,567.4143676757812
1767330578.3372643,729.55810546875,729.735107421875,731.4166870117188,753.98583984375
1767330578.4227908,789.742431640625,793.9022216796875,751.5076904296875,896.215576171875
1767330578.426697,738.8512573242188,739.913330078125,736.4615478515625,739.4707641601562
1767330578.4306033,661.6737060546875,658.9299926757812,712.6533813476562,555.2890014648438
1767330578.4345095,695.837158203125,695.4830932617188,718.5833129882812,674.0645751953125
1767330578.4384158,778.5906372070312,793.0171508789062,742.47998046875,884.001708984375
1767330578.442322,760.9778442382812,777.7940673828125,747.87890625,797.4424438476562
1767330578.4462283,674.5071411132812,674.0645751953125,719.9993896484375,588.21337890625
1767330578.4501345,676.2772216796875,671.4093627929688,717.6982421875,624.5010375976562
1767330578.422158,762.305419921875,766.1112060546875,740.9754028320312,842.7577514648438
1767330578.4260643,778.1480712890625,780.09521484375,738.7627563476562,864.4417724609375
1767330578.4299705,697.2532348632812,694.5980834960938,720.7074584960938,640.5206909179688
1767330578.4338768,662.9127807617188,665.3024291992188,711.6798095703125,572.459228515625
1767330578.437783,742.3914794921875,746.7283325195312,736.5501098632812,785.3170776367188
1767330578.4416893,795.4953002929688,792.486083984375,749.3834838867188,899.1362915039062
1767330578.4455955,727.7879638671875,728.053466796875,726.19482421875,704.333740234375
1767330578.4495018,664.4173583984375,662.2047119140625,715.7510986328125,550.1556396484375
1767330578.453408,717.0786743164062,719.556884765625,727.9649658203125,707.3429565429688
1767330578.4573143,797.531005859375,796.8229370117188,751.1536254882812,879.3993530273438
1767330578.4612205,760.8893432617188,744.16162109375,738.8512573242188,771.5986328125
1767330578.4651268,673.1795043945312,667.3380737304688,713.4498901367188,569.6270751953125
1767330578.4239452,699.0233764648438,701.76708984375,724.8672485351562,643.618408203125
1767330578.4278514,784.2550048828125,780.1837158203125,742.8340454101562,877.6292724609375
1767330578.4317577,771.8641357421875,773.7227783203125,743.0110473632812,843.2887573242188
1767330578.435664,681.0565795898438,697.7843017578125,721.946533203125,608.3043212890625
1767330578.4395702,669.2852172851562,687.9600830078125,720.44189453125,595.64794921875
1767330578.4434764,755.66748046875,757.4375610351562,740.267333984375,833.2875366210938
1767330578.4473827,782.9274291992188,776.3779296875,738.40869140625,890.5512084960938
1767330578.451289,703.979736328125,708.5820922851562,724.4246826171875,667.4265747070312
1767330578.4551952,662.1162109375,683.0037231445312,723.7166748046875,561.4844360351562
1767330578.4591014,735.9305419921875,743.0110473632812,744.16162109375,746.1087646484375
1767330578.4630077,796.0263671875,774.165283203125,741.8604736328125,904.8892211914062
1767330578.466914,737.7891845703125,729.4695434570312,723.2741088867188,744.9581909179688
1767330578.5500734,665.656494140625,680.5255737304688,717.4326782226562,552.456787109375
1767330578.5539796,708.405029296875,709.4671020507812,722.7431030273438,689.55322265625
1767330578.557886,790.2734375,776.9974975585938,736.2845458984375,901.5260009765625
1767330578.5617921,761.8629150390625,763.0134887695312,734.2489013671875,803.81494140625
1767330578.5656984,676.7197875976562,695.2175903320312,724.336181640625,573.5213623046875
1767330578.5696046,680.260009765625,689.2876586914062,724.0706787109375,621.75732421875
1767330578.573511,760.7123413085938,755.1364135742188,738.9397583007812,860.3704833984375
1767330578.5774171,773.3687133789062,774.6078491210938,745.1351928710938,855.9451904296875
1767330578.5813234,688.048583984375,708.5820922851562,721.946533203125,620.252685546875
1767330578.5852296,658.221923828125,675.65771484375,704.8648071289062,586.2662353515625
1767330578.5494416,743.1880493164062,741.3294067382812,740.0018310546875,780.0067138671875
1767330578.5533478,789.5654296875,779.2101440429688,754.4283447265625,878.07177734375
1767330578.557254,721.0614624023438,726.1063232421875,728.1419677734375,690.5267944335938
1767330578.5611603,665.5679931640625,669.1967163085938,716.2821044921875,545.7303466796875
1767330578.5650666,722.2120361328125,708.22802734375,728.053466796875,722.9201049804688
1767330578.5689728,794.2562255859375,782.9274291992188,746.374267578125,895.3305053710938
1767330578.572879,755.1364135742188,765.7572021484375,734.6914672851562,758.6766967773438
1767330578.5767853,674.7726440429688,680.0830078125,713.98095703125,559.8028564453125
1767330578.5806916,697.9613037109375,682.2071533203125,721.76953125,657.9564208984375
1767330578.5845978,785.0515747070312,772.306640625,747.87890625,880.284423828125
1767330578.588504,777.3515014648438,786.7332153320312,744.338623046875,828.1541748046875
1767330578.5924103,692.119873046875,696.4566650390625,725.7523193359375,582.0179443359375
1767330578.5963166,679.1094360351562,656.7173461914062,716.6361694335938,599.2766723632812
1767330578.6002228,765.9342041015625,746.9938354492188,733.62939453125,847.0945434570312
1767330578.5749803,799.566650390625,803.2838745117188,748.4984130859375,884.001708984375
1767330578.5788865,722.5661010742188,722.4775390625,728.8500366210938,666.4530029296875
1767330578.5827928,677.1622924804688,662.0277099609375,713.5384521484375,576.7960815429688
1767330578.586699,741.8604736328125,727.1683959960938,730.3546142578125,776.9089965820312
1767330578.5906053,800.274658203125,796.1148681640625,744.338623046875,909.6685791015625
1767330578.5945115,746.6398315429688,739.913330078125,734.33740234375,739.0282592773438
1767330578.5984178,670.1702880859375,656.6288452148438,715.5740966796875,566.7063598632812
1767330578.602324,708.22802734375,696.8107299804688,720.8844604492188,699.4658813476562
1767330578.6574693,787.0872192382812,789.5654296875,743.8076171875,896.03857421875
1767330578.6613755,765.3146362304688,768.058349609375,751.0651245117188,788.7688598632812
1767330578.6652818,681.4990844726562,679.0209350585938,730.9741821289062,569.892578125
1767330578.669188,690.3497314453125,689.730224609375,719.2913208007812,638.9275512695312
1767330578.6730943,779.3871459960938,782.0423583984375,734.6914672851562,873.823486328125
1767330578.6770005,787.0872192382812,789.742431640625,738.3201904296875,860.9015502929688
1767330578.6809068,699.9969482421875,694.33251953125,716.4591064453125,629.3688354492188
1767330578.684813,674.6841430664062,668.6657104492188,710.8832397460938,582.3719482421875
1767330578.6887193,756.37548828125,752.6582641601562,734.4259033203125,801.779296875
1767330578.6926255,797.3539428710938,785.2285766601562,745.2236938476562,892.5868530273438
1767330578.6543763,722.3890380859375,710.5292358398438,729.0270385742188,685.1278686523438
1767330578.6582825,664.4173583984375,662.5587768554688,713.4498901367188,555.0234985351562
1767330578.6621888,724.8672485351562,733.7178955078125,727.4338989257812,733.0098266601562
1767330578.666095,793.0171508789062,803.5494384765625,753.8973388671875,888.6925659179688
1767330578.6700013,742.2144775390625,744.4271240234375,736.373046875,758.1456298828125
1767330578.6739075,662.8242797851562,665.2139282226562,708.9360961914062,568.6535034179688
1767330578.6778138,692.8279418945312,700.7935180664062,724.1591796875,659.7265625
1767330578.68172,778.9446411132812,775.669921875,750.2685546875,886.7454223632812
1767330578.6856263,764.7836303710938,753.4547729492188,737.9661865234375,827.8001708984375
1767330578.6895325,677.6048583984375,681.587646484375,715.1315307617188,590.5145874023438
1767330578.6934388,680.3485107421875,695.837158203125,720.9729614257812,602.1973876953125
1767330578.697345,770.093994140625,765.3146362304688,737.877685546875,841.6956787109375
1767330578.7012513,791.955078125,776.9089965820312,743.630615234375,884.2672119140625
1767330578.7051575,711.9453125,706.1038818359375,729.0270385742188,657.513916015625
1767330578.6799855,670.6128540039062,679.1979370117188,718.05224609375,571.2201538085938
1767330578.6838918,743.1880493164062,745.1351928710938,744.6926879882812,764.6951293945312
1767330578.687798,797.7965087890625,776.5549926757812,751.0651245117188,906.3052978515625
1767330578.6917043,734.9569702148438,727.0798950195312,724.5132446289062,734.7799682617188
1767330578.6956105,668.4886474609375,683.2692260742188,711.59130859375,553.607421875
1767330578.6995168,713.0073852539062,720.6189575195312,726.6373901367188,705.83837890625
1767330578.703423,790.450439453125,779.2986450195312,745.3121948242188,904.2696533203125
1767330578.7073293,760.8008422851562,750.3570556640625,735.842041015625,789.3883666992188
1767330578.806132,681.0565795898438,684.9508666992188,722.9201049804688,568.033935546875
1767330578.8100383,695.7486572265625,695.3945922851562,726.6373901367188,634.7677612304688
1767330578.7894351,777.1744995117188,759.1192016601562,734.2489013671875,865.1498413085938
1767330578.7933414,780.44921875,765.845703125,737.523681640625,847.714111328125
1767330578.7972476,693.1819458007812,707.697021484375,724.0706787109375,612.1986083984375
1767330578.801154,675.834716796875,693.0049438476562,724.5132446289062,565.2017211914062
1767330578.8050601,755.5789794921875,749.6490478515625,734.2489013671875,803.5494384765625
1767330578.8089664,785.5826416015625,780.7147827148438,734.6029663085938,893.2063598632812
1767330578.8128726,714.6890258789062,720.5304565429688,734.6029663085938,676.4542236328125
1767330578.816779,664.4173583984375,663.5323486328125,729.4695434570312,562.6350708007812
1767330578.8206851,724.1591796875,709.90966796875,728.1419677734375,749.8260498046875
1767330578.8245914,790.8045043945312,781.3342895507812,733.0098266601562,902.8535766601562
1767330578.8284976,752.8352661132812,755.844482421875,722.7431030273438,750.3570556640625
1767330578.832404,686.8980102539062,680.8795776367188,716.1051025390625,574.5834350585938
1767330578.8363101,699.9969482421875,695.1290893554688,729.3810424804688,683.5347900390625
1767330578.8402164,766.9077758789062,771.2445678710938,748.409912109375,884.6212768554688
1767330578.7993336,753.8973388671875,772.6607055664062,744.6926879882812,812.488525390625
1767330578.8032398,673.7105712890625,697.7843017578125,734.33740234375,571.4856567382812
1767330578.807146,674.4185791015625,667.2495727539062,733.7178955078125,609.54345703125
1767330578.8110523,757.4375610351562,744.16162109375,739.913330078125,853.1129760742188
1767330578.8149586,779.8297119140625,786.5562133789062,743.4535522460938,863.1141967773438
1767330578.8188648,700.08544921875,711.5028076171875,727.9649658203125,641.582763671875
1767330578.822771,661.4966430664062,657.7794189453125,716.6361694335938,572.7247924804688
1767330578.8266773,736.8156127929688,721.6810302734375,732.478759765625,782.2193603515625
1767330578.8305836,789.2998657226562,790.3619384765625,751.0651245117188,893.2948608398438
1767330578.8344898,726.6373901367188,737.877685546875,739.2052612304688,706.015380859375
1767330578.838396,656.8943481445312,663.7978515625,713.0073852539062,552.1912841796875
1767330578.8423023,707.0774536132812,710.086669921875,724.7787475585938,705.661376953125
1767330578.8731215,783.989501953125,795.4067993164062,744.6041870117188,893.2063598632812
1767330578.8770278,752.2156982421875,767.88134765625,741.0639038085938,763.987060546875
1767330578.880934,672.29443359375,672.6484985351562,723.5396728515625,563.8741455078125
1767330578.8848403,686.8980102539062,687.9600830078125,718.7603149414062,651.760986328125
1767330578.940537,771.8641357421875,780.44921875,738.7627563476562,865.9464111328125
1767330578.9444432,771.2445678710938,774.0767822265625,741.0639038085938,840.1025390625
1767330578.9483495,685.3048706054688,683.2692260742188,724.336181640625,614.145751953125
1767330578.9522557,668.9312133789062,668.22314453125,715.4855346679688,590.5145874023438
1767330578.956162,751.8616943359375,758.4111328125,735.6650390625,814.8782348632812
1767330578.9600682,785.671142578125,795.1412963867188,748.23291015625,888.1614990234375
1767330578.9124017,714.0694580078125,719.8223876953125,729.0270385742188,680.260009765625
1767330578.916308,663.5323486328125,665.3909301757812,717.6982421875,561.572998046875
1767330578.9202142,723.0971069335938,728.407470703125,728.8500366210938,748.7639770507812
1767330578.9241204,795.1412963867188,801.3367309570312,754.5169067382812,892.0557861328125
1767330578.9280267,745.2236938476562,740.3558349609375,735.2224731445312,742.9225463867188
1767330578.931933,666.7185668945312,663.3552856445312,704.333740234375,571.1316528320312
1767330578.9358392,706.2808837890625,713.5384521484375,720.44189453125,679.906005859375
1767330578.9397454,790.8045043945312,793.9022216796875,740.1788330078125,893.0293579101562
1767330578.9436517,773.1032104492188,767.52734375,735.2224731445312,820.3656005859375
1767330578.947558,685.0393676757812,678.9324340820312,716.9016723632812,588.21337890625
1767330578.9514642,689.2876586914062,686.5440063476562,722.5661010742188,617.4204711914062
1767330578.9553704,775.669921875,769.3859252929688,746.374267578125,852.8474731445312
1767330578.9592767,787.52978515625,778.6791381835938,741.6834716796875,870.106201171875
1767330578.963183,703.5372314453125,704.9533081054688,715.4855346679688,637.9539794921875
1767330578.9468913,670.3472900390625,682.8267211914062,713.3613891601562,571.57421875
1767330578.9507976,751.6846923828125,750.8881225585938,743.0110473632812,772.7492065429688
1767330578.9547038,801.1597290039062,776.7319946289062,746.8168334960938,889.4005737304688
1767330578.95861,731.2396850585938,720.8844604492188,722.4775390625,703.625732421875
1767330578.9625163,668.3116455078125,680.0830078125,715.4855346679688,543.5177001953125
1767330578.9664226,723.982177734375,725.2212524414062,728.7615356445312,714.7775268554688
1767330578.9703288,794.7872924804688,785.3170776367188,741.2409057617188,900.4638671875
1767330578.974235,756.9065551757812,753.6318359375,732.9213256835938,771.1560668945312
1767330578.9781413,675.65771484375,684.5083618164062,717.6982421875,562.9005737304688
1767330578.9820476,694.7750854492188,695.5716552734375,723.982177734375,651.3184204101562
1767330578.9859538,777.3515014648438,761.951416015625,739.4707641601562,878.5143432617188
1767330578.98986,774.6963500976562,765.845703125,736.8156127929688,838.5979614257812
1767330579.0605245,693.4474487304688,702.0325927734375,726.7258911132812,607.4192504882812
1767330579.0644307,684.7738647460938,692.7394409179688,733.2753295898438,585.2041625976562
1767330579.068337,767.1732788085938,749.6490478515625,740.7098999023438,825.676025390625
1767330579.0722432,793.5482177734375,780.272216796875,743.1880493164062,899.578857421875
1767330579.0761495,722.300537109375,728.4959716796875,731.5052490234375,674.9496459960938
1767330579.0800557,676.8082885742188,679.0209350585938,719.2028198242188,576.2650146484375
1767330579.0396543,734.9569702148438,728.9385375976562,735.7535400390625,770.9790649414062
1767330579.0435605,790.0079345703125,781.5113525390625,745.7547607421875,909.4915161132812
1767330579.0474668,733.9833984375,737.7891845703125,732.3902587890625,735.4879760742188
1767330579.051373,659.4609985351562,670.5243530273438,716.37060546875,555.0234985351562
1767330579.0552793,698.226806640625,690.3497314453125,725.1327514648438,694.155517578125
1767330579.0591855,779.1216430664062,771.6871337890625,747.9674072265625,901.5260009765625
1767330579.0630918,753.808837890625,778.0595703125,742.1259765625,808.6828002929688
1767330579.066998,674.5071411132812,706.8119506835938,733.3638305664062,570.3350830078125
1767330579.0709043,684.5083618164062,681.587646484375,734.8684692382812,625.651611328125
1767330579.0748105,764.9606323242188,754.6939086914062,741.3294067382812,872.141845703125
1767330579.0787168,775.4043579101562,794.2562255859375,746.374267578125,860.7245483398438
1767330579.082623,694.5980834960938,713.803955078125,726.1063232421875,630.3424072265625
1767330579.0342493,667.4265747070312,665.3909301757812,714.4234619140625,582.9030151367188
1767330579.0381556,746.9938354492188,740.1788330078125,737.877685546875,798.416015625
1767330579.0420618,796.38037109375,796.6459350585938,749.737548828125,892.0557861328125
1767330579.045968,731.94775390625,733.7178955078125,729.2040405273438,691.0578002929688
1767330579.0498743,673.799072265625,665.7449951171875,712.9188842773438,552.9878540039062
1767330579.0537806,729.2925415039062,712.0338134765625,723.5396728515625,723.1856079101562
1767330579.0576868,799.8321533203125,791.60107421875,741.594970703125,897.1006469726562
1767330579.061593,762.9249877929688,768.5009155273438,751.8616943359375,752.3927001953125
1767330579.0654993,681.6761474609375,672.7369995117188,728.23046875,555.4660034179688
1767330579.0694056,699.2003784179688,687.2520141601562,714.5120239257812,660.9656372070312
1767330579.0733118,788.6803588867188,790.096435546875,742.1259765625,877.7177734375
1767330579.077218,785.0515747070312,784.6975708007812,747.2593383789062,834.172607421875
1767330579.0811243,692.5624389648438,684.9508666992188,725.3982543945312,603.7020263671875
1767330579.0850306,678.3128662109375,673.4450073242188,720.9729614257812,600.5158081054688
1767330579.1649606,758.9421997070312,766.5537719726562,742.5685424804688,831.2518920898438
1767330579.1688669,785.2285766601562,796.203369140625,753.2777709960938,880.9039916992188
1767330579.1727731,704.4222412109375,712.122314453125,735.5765380859375,659.3724975585938
1767330579.1766794,654.6817016601562,663.0012817382812,723.4511108398438,559.2717895507812
1767330579.1805856,721.5040283203125,736.01904296875,740.7984008789062,763.3674926757812
1767330579.1844919,783.2814331054688,805.673583984375,765.7572021484375,888.6040649414062
1767330579.1883981,714.7775268554688,734.0718994140625,749.8260498046875,703.802734375
1767330579.1923044,633.4401245117188,660.8771362304688,722.5661010742188,538.207275390625
1767330579.1962106,673.8875732421875,718.4947509765625,736.9926147460938,665.4794311523438
1767330579.2001169,751.2421264648438,792.132080078125,760.6238403320312,868.5131225585938
1767330579.151787,722.4775390625,756.198486328125,757.4375610351562,774.6078491210938
1767330579.1556933,629.2803344726562,677.2507934570312,736.7271118164062,536.7026977539062
1767330579.1595995,641.0516967773438,698.9348754882812,744.5156860351562,583.7880859375
1767330579.1635058,732.0362548828125,784.343505859375,773.0147094726562,821.958740234375
1767330579.167412,737.9661865234375,783.9010009765625,762.2169189453125,815.3207397460938
1767330579.1713183,656.2747802734375,713.2728881835938,741.948974609375,574.8489379882812
1767330579.1752245,633.5286865234375,697.872802734375,745.2236938476562,531.92333984375
1767330579.1791308,716.2821044921875,768.412353515625,761.951416015625,745.4891967773438
1767330579.183037,758.5881958007812,785.84814453125,758.05712890625,843.9083251953125
1767330579.1869433,690.7922973632812,715.66259765625,730.9741821289062,658.221923828125
1767330579.1908495,646.0965576171875,680.3485107421875,724.1591796875,522.453125
1767330579.1947558,710.8832397460938,735.3994750976562,739.0282592773438,708.051025390625
1767330579.198662,777.3515014648438,795.0527954101562,752.30419921875,881.2579956054688
1767330579.2025683,736.9041137695312,751.59619140625,744.0731201171875,735.2224731445312
1767330579.1880295,667.869140625,675.65771484375,729.1155395507812,539.0038452148438
1767330579.1919358,703.625732421875,703.5372314453125,736.5501098632812,649.90234375
1767330579.195842,783.4584350585938,768.8549194335938,742.302978515625,873.9119873046875
1767330579.1997483,771.1560668945312,757.1720581054688,729.4695434570312,815.6748046875
1767330579.2036545,688.9336547851562,697.4302368164062,714.6005249023438,592.9042358398438
1767330579.2075608,682.6497192382812,691.5003662109375,726.8143920898438,596.9755249023438
1767330579.211467,766.6422729492188,749.1179809570312,744.6041870117188,843.9083251953125
1767330579.2153733,786.9102172851562,772.9262084960938,744.7811889648438,905.1547241210938
1767330579.3162317,703.979736328125,713.7154541015625,730.9741821289062,665.2139282226562
1767330579.320138,664.0633544921875,668.1346435546875,713.4498901367188,576.9730834960938
1767330579.3072762,733.7178955078125,714.6005249023438,724.0706787109375,788.5918579101562
1767330579.3111825,788.8573608398438,769.1204223632812,740.5328979492188,913.9168701171875
1767330579.3150887,731.0626831054688,733.806396484375,730.9741821289062,725.8408203125
1767330579.318995,668.046142578125,674.9496459960938,717.7867431640625,564.9362182617188
1767330579.3229012,715.7510986328125,700.262451171875,726.371826171875,718.9373168945312
1767330579.3268075,787.3527221679688,769.9169921875,740.4443359375,909.8455810546875
1767330579.3307137,756.021484375,764.9606323242188,733.8948974609375,800.1861572265625
1767330579.33462,680.7025756835938,696.9877319335938,724.9557495117188,567.0603637695312
1767330579.3385262,696.5452270507812,676.36572265625,720.5304565429688,633.4401245117188
1767330579.3424325,778.5906372070312,745.5777587890625,722.6546020507812,877.0982055664062
1767330579.3463387,787.0872192382812,776.1124267578125,728.1419677734375,851.1658325195312
1767330579.350245,709.1130981445312,702.0325927734375,714.8660278320312,620.1641845703125
1767330579.3014026,692.3853759765625,661.939208984375,712.122314453125,591.3110961914062
1767330579.3053088,772.2181396484375,737.523681640625,729.4695434570312,814.4356689453125
1767330579.309215,810.9839477539062,792.8401489257812,738.3201904296875,892.0557861328125
1767330579.3131213,742.9225463867188,729.4695434570312,722.8316040039062,684.6853637695312
1767330579.3170276,689.730224609375,667.0725708007812,703.625732421875,570.423583984375
1767330579.3209338,752.127197265625,725.3097534179688,720.5304565429688,755.844482421875
1767330579.32484,818.241455078125,797.4424438476562,734.0718994140625,917.899658203125
1767330579.3287463,770.8905639648438,763.5445556640625,728.407470703125,755.4904174804688
1767330579.3326526,691.4118041992188,671.763427734375,713.626953125,570.1580810546875
1767330579.3365588,714.9545288085938,680.5255737304688,708.8475952148438,696.01416015625
1767330579.340465,803.3723754882812,773.4572143554688,739.1167602539062,906.4822998046875
1767330579.3443713,794.6102905273438,773.811279296875,743.0110473632812,842.13818359375
1767330579.3482776,704.333740234375,685.658935546875,715.5740966796875,612.5526733398438
1767330579.3521838,698.0498046875,673.97607421875,711.2372436523438,630.8734741210938
1767330579.3425715,778.0595703125,766.9962768554688,732.2132568359375,859.3084106445312
1767330579.3464777,795.4953002929688,794.5217895507812,741.1524047851562,887.3649291992188
1767330579.350384,710.6177368164062,702.7406616210938,715.2200317382812,661.8507080078125
1767330579.3542902,670.9668579101562,660.8771362304688,703.979736328125,579.6282958984375
1767330579.4063694,744.9581909179688,740.9754028320312,725.7523193359375,792.2205810546875
1767330579.4102757,807.0011596679688,801.602294921875,749.1179809570312,900.6409301757812
1767330579.414182,746.2857666015625,725.0442504882812,731.4166870117188,715.3085327148438
1767330579.4180882,675.3921508789062,654.6817016601562,707.4314575195312,573.8753662109375
1767330579.4219944,729.2925415039062,721.76953125,725.2212524414062,715.839599609375
1767330579.4259007,804.7000122070312,793.0171508789062,740.3558349609375,900.9064331054688
1767330579.429807,767.6158447265625,745.7547607421875,723.628173828125,787.0872192382812
1767330579.4337132,686.5440063476562,674.9496459960938,704.0682373046875,568.2994384765625
1767330579.4376194,708.6705932617188,704.5993041992188,712.476318359375,638.7505493164062
1767330579.4415257,794.6102905273438,782.130859375,736.9041137695312,866.034912109375
1767330579.445432,791.778076171875,769.739990234375,733.1868286132812,843.3772583007812
1767330579.4493382,706.5464477539062,688.048583984375,704.8648071289062,609.9859619140625
1767330579.4532444,690.7037963867188,678.1358642578125,703.979736328125,590.1605224609375
1767330579.4571507,779.7412109375,772.483642578125,739.3822631835938,814.7012329101562
1767330579.4169207,810.098876953125,785.7596435546875,743.5421142578125,890.462646484375
1767330579.420827,722.7431030273438,703.5372314453125,713.5384521484375,689.9957275390625
1767330579.4247332,672.8255004882812,679.4634399414062,709.6441650390625,567.3258666992188
1767330579.4286394,740.09033203125,742.302978515625,733.5408935546875,760.7123413085938
1767330579.4325457,799.4780883789062,783.0159301757812,742.7455444335938,916.041015625
1767330579.436452,744.4271240234375,731.6822509765625,726.19482421875,750.7111206054688
1767330579.4403582,669.9932861328125,669.90478515625,712.7418823242188,560.9534301757812
1767330579.4442644,709.6441650390625,702.298095703125,723.4511108398438,686.6325073242188
1767330579.4481707,790.5390014648438,770.9790649414062,736.9926147460938,905.1547241210938
1767330579.452077,765.3146362304688,760.3582763671875,724.8672485351562,820.277099609375
1767330579.4559832,676.36572265625,691.94287109375,706.9889526367188,590.426025390625
1767330579.4598894,681.7646484375,689.4646606445312,720.44189453125,609.1893920898438
1767330579.4507153,769.8284912109375,748.8524780273438,741.77197265625,844.350830078125
1767330579.4546216,781.77685546875,771.5101318359375,739.4707641601562,879.576416015625
1767330579.4585278,700.262451171875,717.6982421875,719.8223876953125,639.0160522460938
1767330579.462434,668.4886474609375,687.2520141601562,710.263671875,567.4143676757812
1767330579.4663403,743.0110473632812,742.1259765625,725.5753173828125,785.3170776367188
1767330579.4702466,793.2826538085938,785.5826416015625,734.160400390625,894.7109985351562
1767330579.5630403,726.9028930664062,733.3638305664062,722.9201049804688,693.978515625
1767330579.5669465,666.0989990234375,676.7197875976562,708.405029296875,544.7567749023438
1767330579.5708528,716.2821044921875,710.3521728515625,716.7246704101562,710.7062377929688
1767330579.574759,788.3262939453125,776.9089965820312,737.3466186523438,890.8167114257812
1767330579.5265546,754.2513427734375,754.33984375,730.1776123046875,771.4215698242188
1767330579.5304608,681.587646484375,695.7486572265625,727.1683959960938,558.38671875
1767330579.534367,703.7142333984375,700.3509521484375,727.699462890625,645.7425537109375
1767330579.5382733,781.6883544921875,768.2353515625,732.478759765625,886.5684204101562
1767330579.5421796,778.6791381835938,785.0515747070312,735.1339721679688,838.7749633789062
1767330579.5460858,694.7750854492188,703.5372314453125,717.2556762695312,605.649169921875
1767330579.549992,682.3841552734375,668.7542114257812,713.98095703125,601.931884765625
1767330579.5538983,764.5181274414062,745.9317626953125,728.6730346679688,830.8093872070312
1767330579.5578046,793.1056518554688,794.7872924804688,741.6834716796875,886.5684204101562
1767330579.5617108,716.5476684570312,724.5132446289062,732.3017578125,671.3208618164062
1767330579.565617,672.9140014648438,666.010498046875,719.2913208007812,576.353515625
1767330579.5695233,735.1339721679688,718.1407470703125,727.3453979492188,767.3502807617188
1767330579.5734296,789.91943359375,785.4055786132812,737.6121826171875,911.4386596679688
1767330579.5773358,740.09033203125,758.6766967773438,736.6386108398438,738.9397583007812
1767330579.5292542,668.4886474609375,670.7898559570312,724.1591796875,562.8120727539062
1767330579.5331604,706.8119506835938,691.3233032226562,721.5040283203125,709.8211669921875
1767330579.5370667,784.8745727539062,781.5113525390625,743.4535522460938,903.9156494140625
1767330579.540973,761.3318481445312,763.0134887695312,741.8604736328125,810.7184448242188
1767330579.5448792,678.5784301757812,672.9140014648438,715.839599609375,592.8157348632812
1767330579.5487854,683.1807250976562,680.43701171875,715.9281005859375,628.8378295898438
1767330579.5526917,765.9342041015625,771.0675659179688,740.7098999023438,850.103759765625
1767330579.556598,783.9010009765625,790.3619384765625,746.5513305664062,862.4061279296875
1767330579.5605042,703.2716674804688,704.6878051757812,724.2476806640625,637.9539794921875
1767330579.5644104,668.6657104492188,661.4081420898438,713.0073852539062,574.2293701171875
1767330579.5683167,747.2593383789062,742.7455444335938,731.59375,792.9286499023438
1767330579.572223,798.1505126953125,805.0540161132812,753.5433349609375,883.3821411132812
1767330579.5761292,729.3810424804688,726.8143920898438,735.9305419921875,686.2784423828125
1767330579.5800354,667.0725708007812,663.0012817382812,709.1130981445312,563.1660766601562
1767330579.6825507,722.5661010742188,726.4603271484375,724.6902465820312,720.087890625
1767330579.686457,797.2654418945312,798.416015625,744.0731201171875,897.543212890625
1767330579.6903632,757.7916259765625,752.0386962890625,737.9661865234375,757.880126953125
1767330579.6942694,675.4806518554688,662.293212890625,715.1315307617188,552.0142822265625
1767330579.6981757,698.5808715820312,688.3140869140625,714.7775268554688,660.5231323242188
1767330579.702082,784.9630737304688,781.1572875976562,743.1880493164062,883.2051391601562
1767330579.7059882,775.3158569335938,766.022705078125,737.4351196289062,842.13818359375
1767330579.7098944,689.2876586914062,683.80029296875,719.0258178710938,607.5963134765625
1767330579.6617656,681.3220825195312,687.3405151367188,723.3626098632812,608.392822265625
1767330579.6656718,768.9434204101562,779.7412109375,753.8973388671875,832.9335327148438
1767330579.669578,796.9999389648438,791.2470092773438,757.6146240234375,880.9924926757812
1767330579.6734843,711.3257446289062,696.1026611328125,714.6005249023438,671.3208618164062
1767330579.6773906,662.0277099609375,661.939208984375,702.0325927734375,565.9097900390625
1767330579.6812968,733.806396484375,737.7891845703125,726.9028930664062,767.1732788085938
1767330579.685203,793.7252197265625,784.8745727539062,742.47998046875,912.5892944335938
1767330579.6891093,734.33740234375,729.55810546875,728.4959716796875,735.7535400390625
1767330579.6930156,666.4530029296875,671.8519287109375,715.3085327148438,557.855712890625
1767330579.6969218,714.157958984375,718.05224609375,731.770751953125,700.9705200195312
1767330579.700828,794.7872924804688,785.2285766601562,749.2949829101562,911.0846557617188
1767330579.7047343,763.2789916992188,757.7916259765625,734.33740234375,809.0368041992188
1767330579.7086406,678.4898681640625,689.9072265625,714.5120239257812,583.3455200195312
1767330579.7125468,693.62451171875,709.90966796875,722.8316040039062,622.6423950195312
1767330579.6898797,776.3779296875,771.4215698242188,742.47998046875,853.5555419921875
1767330579.693786,778.5906372070312,762.2169189453125,735.1339721679688,868.24755859375
1767330579.6976922,696.9877319335938,699.0233764648438,719.1143188476562,625.2975463867188
1767330579.7015984,674.0645751953125,684.4197998046875,716.9901733398438,572.5477905273438
1767330579.7055047,754.5169067382812,743.630615234375,731.0626831054688,804.345947265625
1767330579.709411,796.8229370117188,787.706787109375,748.3214111328125,896.3040771484375
1767330579.7133172,726.017822265625,737.0811157226562,735.4879760742188,688.1370849609375
1767330579.7172234,668.8427124023438,678.8439331054688,710.7947387695312,555.3775024414062
1767330579.7211297,724.5132446289062,708.9360961914062,720.3533935546875,738.4971923828125
1767330579.725036,794.167724609375,772.9262084960938,740.3558349609375,905.5087890625
1767330579.7878642,751.3306274414062,754.6939086914062,731.6822509765625,758.3226318359375
1767330579.7917705,678.1358642578125,694.155517578125,723.5396728515625,551.4832153320312
1767330579.7956767,707.4314575195312,696.6337280273438,729.912109375,659.903564453125
1767330579.799583,784.4320068359375,764.4295654296875,736.9926147460938,898.3397216796875
1767330579.8034892,778.8561401367188,782.3963623046875,743.4535522460938,836.208251953125
1767330579.8073955,698.0498046875,713.3613891601562,727.5224609375,602.0203857421875
1767330579.8113017,687.0750122070312,679.552001953125,720.5304565429688,614.499755859375
1767330579.815208,771.0675659179688,742.47998046875,739.4707641601562,847.537109375
1767330579.7795506,794.167724609375,780.8917846679688,739.913330078125,880.3729248046875
1767330579.7834568,714.2464599609375,718.3177490234375,729.1155395507812,652.9115600585938
1767330579.787363,673.6220703125,661.585205078125,725.3982543945312,575.3799438476562
1767330579.7912693,743.3650512695312,727.87646484375,733.0098266601562,780.3607177734375
1767330579.7951756,801.3367309570312,801.779296875,744.6041870117188,910.111083984375
1767330579.7990818,740.8869018554688,760.44677734375,744.2501220703125,719.8223876953125
1767330579.802988,669.0197143554688,672.2059326171875,724.4246826171875,550.6867065429688
1767330579.8068943,710.9717407226562,695.4830932617188,711.6798095703125,712.8303833007812
1767330579.8108006,785.5826416015625,781.5113525390625,733.4523315429688,898.8707885742188
1767330579.8147068,758.4111328125,762.8364868164062,742.0374755859375,790.8045043945312
1767330579.818613,677.1622924804688,680.43701171875,720.5304565429688,583.7880859375
1767330579.8225193,690.084228515625,691.765869140625,721.8580322265625,644.9459838867188
1767330579.8264256,775.846923828125,776.6434936523438,741.4179077148438,861.1670532226562
1767330579.8303318,783.0159301757812,785.5826416015625,742.8340454101562,843.0232543945312
1767330579.8093548,697.4302368164062,695.9256591796875,728.7615356445312,621.580322265625
1767330579.813261,673.7105712890625,669.1967163085938,719.556884765625,585.1156616210938
1767330579.8171673,754.2513427734375,754.5169067382812,734.6029663085938,807.6207275390625
1767330579.8210735,797.3539428710938,810.1873779296875,755.9329833984375,881.4349975585938
1767330579.8249798,723.0086059570312,721.8580322265625,740.6213989257812,666.364501953125
1767330579.828886,663.3552856445312,648.7517700195312,707.697021484375,565.1132202148438
1767330579.8327923,723.5396728515625,719.910888671875,717.9637451171875,746.2857666015625
1767330579.8366985,789.2998657226562,793.1056518554688,743.0995483398438,898.9592895507812
1767330579.8406048,745.3121948242188,742.5685424804688,735.842041015625,754.4283447265625
1767330579.844511,671.6749267578125,669.55078125,722.4775390625,561.75
